timestamp,address,values
2025-11-19T16:19:23.974081,/muse/eeg,"[669.2673992673992, 389.2307692307692, 858.6446886446887, 660.0]"
2025-11-19T16:19:24.068726,/muse/eeg,"[754.2857142857143, 511.31868131868134, 967.4358974358975, 711.5750915750916]"
2025-11-19T16:19:24.021687,/muse/eeg,"[706.7399267399268, 291.72161172161174, 886.8498168498169, 684.981684981685]"
2025-11-19T16:19:24.104749,/muse/eeg,"[826.007326007326, 570.5494505494505, 956.959706959707, 776.4468864468864]"
2025-11-19T16:19:24.171008,/muse/eeg,"[826.007326007326, 570.5494505494505, 956.959706959707, 776.4468864468864]"
2025-11-19T16:19:24.252193,/muse/eeg,"[826.007326007326, 570.5494505494505, 956.959706959707, 776.4468864468864]"
2025-11-19T16:19:24.318538,/muse/eeg,"[826.007326007326, 570.5494505494505, 956.959706959707, 776.4468864468864]"
2025-11-19T16:19:24.371133,/muse/eeg,"[826.007326007326, 570.5494505494505, 956.959706959707, 776.4468864468864]"
2025-11-19T16:19:24.436633,/muse/eeg,"[826.007326007326, 570.5494505494505, 956.959706959707, 776.4468864468864]"
2025-11-19T16:19:24.473464,/muse/eeg,"[826.007326007326, 570.5494505494505, 956.959706959707, 776.4468864468864]"
2025-11-19T16:19:24.536717,/muse/eeg,"[826.007326007326, 570.5494505494505, 956.959706959707, 776.4468864468864]"
2025-11-19T16:19:24.617791,/muse/eeg,"[826.007326007326, 570.5494505494505, 956.959706959707, 776.4468864468864]"
2025-11-19T16:19:24.655156,/muse/eeg,"[804.6520146520147, 645.8974358974359, 895.7142857142858, 752.2710622710623]"
2025-11-19T16:19:24.703266,/muse/eeg,"[810.6959706959707, 550.4029304029305, 892.4908424908425, 759.92673992674]"
2025-11-19T16:19:24.753363,/muse/eeg,"[810.6959706959707, 550.4029304029305, 892.4908424908425, 759.92673992674]"
2025-11-19T16:19:24.820130,/muse/eeg,"[810.6959706959707, 550.4029304029305, 892.4908424908425, 759.92673992674]"
2025-11-19T16:19:24.871340,/muse/eeg,"[810.6959706959707, 550.4029304029305, 892.4908424908425, 759.92673992674]"
2025-11-19T16:19:24.969733,/muse/eeg,"[716.4102564102565, 151.9047619047619, 966.2271062271062, 685.3846153846154]"
2025-11-19T16:19:25.020448,/muse/eeg,"[716.4102564102565, 151.9047619047619, 966.2271062271062, 685.3846153846154]"
2025-11-19T16:19:25.058844,/muse/eeg,"[716.4102564102565, 151.9047619047619, 966.2271062271062, 685.3846153846154]"
2025-11-19T16:19:25.151058,/muse/eeg,"[716.4102564102565, 151.9047619047619, 966.2271062271062, 685.3846153846154]"
2025-11-19T16:19:25.204650,/muse/eeg,"[716.4102564102565, 151.9047619047619, 966.2271062271062, 685.3846153846154]"
2025-11-19T16:19:25.287099,/muse/eeg,"[716.4102564102565, 151.9047619047619, 966.2271062271062, 685.3846153846154]"
2025-11-19T16:19:25.340441,/muse/eeg,"[716.4102564102565, 151.9047619047619, 966.2271062271062, 685.3846153846154]"
2025-11-19T16:19:25.421383,/muse/eeg,"[804.6520146520147, 143.44322344322345, 833.6630036630037, 745.8241758241759]"
2025-11-19T16:19:25.472700,/muse/eeg,"[785.7142857142858, 123.69963369963371, 858.2417582417582, 727.6923076923077]"
2025-11-19T16:19:25.554299,/muse/eeg,"[640.6593406593407, 95.8974358974359, 862.2710622710623, 618.0952380952381]"
2025-11-19T16:19:25.568799,/muse/eeg,"[640.6593406593407, 95.8974358974359, 862.2710622710623, 618.0952380952381]"
2025-11-19T16:19:25.589749,/muse/eeg,"[640.6593406593407, 95.8974358974359, 862.2710622710623, 618.0952380952381]"
2025-11-19T16:19:25.620422,/muse/eeg,"[640.6593406593407, 95.8974358974359, 862.2710622710623, 618.0952380952381]"
2025-11-19T16:19:25.654969,/muse/eeg,"[640.6593406593407, 95.8974358974359, 862.2710622710623, 618.0952380952381]"
2025-11-19T16:19:25.705179,/muse/eeg,"[640.6593406593407, 95.8974358974359, 862.2710622710623, 618.0952380952381]"
2025-11-19T16:19:25.819803,/muse/eeg,"[640.6593406593407, 95.8974358974359, 862.2710622710623, 618.0952380952381]"
2025-11-19T16:19:25.905291,/muse/eeg,"[640.6593406593407, 95.8974358974359, 862.2710622710623, 618.0952380952381]"
2025-11-19T16:19:25.969763,/muse/eeg,"[640.6593406593407, 95.8974358974359, 862.2710622710623, 618.0952380952381]"
2025-11-19T16:19:25.841795,/muse/eeg,"[640.6593406593407, 95.8974358974359, 862.2710622710623, 618.0952380952381]"
2025-11-19T16:19:26.071574,/muse/eeg,"[738.1684981684982, 402.9304029304029, 893.6996336996338, 703.1135531135532]"
2025-11-19T16:19:26.037791,/muse/eeg,"[831.2454212454213, 154.72527472527474, 883.2234432234433, 778.4615384615385]"
2025-11-19T16:19:26.170774,/muse/eeg,"[738.1684981684982, 402.9304029304029, 893.6996336996338, 703.1135531135532]"
2025-11-19T16:19:26.205367,/muse/eeg,"[640.6593406593407, 302.6007326007326, 863.4798534798535, 621.3186813186813]"
2025-11-19T16:19:26.287569,/muse/eeg,"[803.4432234432235, 0.0, 880.0, 769.5970695970697]"
2025-11-19T16:19:26.370174,/muse/eeg,"[761.5384615384615, 110.40293040293041, 918.2783882783883, 736.5567765567765]"
2025-11-19T16:19:26.393906,/muse/eeg,"[761.5384615384615, 110.40293040293041, 918.2783882783883, 736.5567765567765]"
2025-11-19T16:19:26.420852,/muse/eeg,"[780.4761904761905, 100.73260073260073, 903.7728937728938, 740.1831501831502]"
2025-11-19T16:19:26.504099,/muse/eeg,"[667.6556776556777, 313.0769230769231, 851.3919413919414, 654.7619047619048]"
2025-11-19T16:19:26.528026,/muse/eeg,"[667.6556776556777, 313.0769230769231, 851.3919413919414, 654.7619047619048]"
2025-11-19T16:19:26.471627,/muse/eeg,"[667.6556776556777, 313.0769230769231, 851.3919413919414, 654.7619047619048]"
2025-11-19T16:19:26.570018,/muse/eeg,"[667.6556776556777, 313.0769230769231, 851.3919413919414, 654.7619047619048]"
2025-11-19T16:19:26.610177,/muse/eeg,"[822.7838827838829, 278.02197802197804, 850.989010989011, 717.2161172161173]"
2025-11-19T16:19:26.656068,/muse/eeg,"[778.8644688644689, 263.1135531135531, 833.6630036630037, 757.5091575091575]"
2025-11-19T16:19:26.755639,/muse/eeg,"[778.8644688644689, 263.1135531135531, 833.6630036630037, 757.5091575091575]"
2025-11-19T16:19:26.720129,/muse/eeg,"[778.8644688644689, 263.1135531135531, 833.6630036630037, 757.5091575091575]"
2025-11-19T16:19:26.787380,/muse/eeg,"[778.8644688644689, 263.1135531135531, 833.6630036630037, 757.5091575091575]"
2025-11-19T16:19:26.872883,/muse/eeg,"[778.8644688644689, 263.1135531135531, 833.6630036630037, 757.5091575091575]"
2025-11-19T16:19:26.896033,/muse/eeg,"[778.8644688644689, 263.1135531135531, 833.6630036630037, 757.5091575091575]"
2025-11-19T16:19:26.972783,/muse/eeg,"[778.8644688644689, 263.1135531135531, 833.6630036630037, 757.5091575091575]"
2025-11-19T16:19:27.070801,/muse/eeg,"[778.8644688644689, 263.1135531135531, 833.6630036630037, 757.5091575091575]"
2025-11-19T16:19:27.121081,/muse/eeg,"[778.8644688644689, 263.1135531135531, 833.6630036630037, 757.5091575091575]"
2025-11-19T16:19:27.187648,/muse/eeg,"[665.2380952380953, 118.46153846153847, 833.6630036630037, 646.7032967032967]"
2025-11-19T16:19:27.203653,/muse/eeg,"[672.4908424908425, 33.040293040293044, 853.0036630036631, 640.2564102564103]"
2025-11-19T16:19:27.260654,/muse/eeg,"[746.6300366300367, 155.53113553113553, 857.4358974358975, 694.2490842490843]"
2025-11-19T16:19:27.320943,/muse/eeg,"[746.6300366300367, 155.53113553113553, 857.4358974358975, 694.2490842490843]"
2025-11-19T16:19:27.289728,/muse/eeg,"[746.6300366300367, 155.53113553113553, 857.4358974358975, 694.2490842490843]"
2025-11-19T16:19:27.453689,/muse/eeg,"[746.6300366300367, 155.53113553113553, 857.4358974358975, 694.2490842490843]"
2025-11-19T16:19:27.505897,/muse/eeg,"[746.6300366300367, 155.53113553113553, 857.4358974358975, 694.2490842490843]"
2025-11-19T16:19:27.554303,/muse/eeg,"[697.8754578754579, 440.80586080586085, 888.0586080586081, 628.974358974359]"
2025-11-19T16:19:27.605530,/muse/eeg,"[830.4395604395604, 237.72893772893772, 842.1245421245421, 776.0439560439561]"
2025-11-19T16:19:27.704031,/muse/eeg,"[830.4395604395604, 237.72893772893772, 842.1245421245421, 776.0439560439561]"
2025-11-19T16:19:27.739124,/muse/eeg,"[830.4395604395604, 237.72893772893772, 842.1245421245421, 776.0439560439561]"
2025-11-19T16:19:27.770999,/muse/eeg,"[830.4395604395604, 237.72893772893772, 842.1245421245421, 776.0439560439561]"
2025-11-19T16:19:27.804590,/muse/eeg,"[703.5164835164835, 81.3919413919414, 803.4432234432235, 664.0293040293041]"
2025-11-19T16:19:27.922684,/muse/eeg,"[786.1172161172161, 255.45787545787547, 921.9047619047619, 730.1098901098901]"
2025-11-19T16:19:27.856224,/muse/eeg,"[711.978021978022, 52.38095238095238, 859.047619047619, 658.3882783882784]"
2025-11-19T16:19:28.002701,/muse/eeg,"[786.1172161172161, 255.45787545787547, 921.9047619047619, 730.1098901098901]"
2025-11-19T16:19:28.020945,/muse/eeg,"[786.1172161172161, 255.45787545787547, 921.9047619047619, 730.1098901098901]"
2025-11-19T16:19:28.055622,/muse/eeg,"[786.1172161172161, 255.45787545787547, 921.9047619047619, 730.1098901098901]"
2025-11-19T16:19:28.072385,/muse/eeg,"[786.1172161172161, 255.45787545787547, 921.9047619047619, 730.1098901098901]"
2025-11-19T16:19:28.154747,/muse/eeg,"[786.1172161172161, 255.45787545787547, 921.9047619047619, 730.1098901098901]"
2025-11-19T16:19:28.175985,/muse/eeg,"[786.1172161172161, 255.45787545787547, 921.9047619047619, 730.1098901098901]"
2025-11-19T16:19:28.271340,/muse/eeg,"[786.1172161172161, 255.45787545787547, 921.9047619047619, 730.1098901098901]"
2025-11-19T16:19:28.338773,/muse/eeg,"[786.1172161172161, 255.45787545787547, 921.9047619047619, 730.1098901098901]"
2025-11-19T16:19:28.440172,/muse/eeg,"[831.6483516483516, 598.7545787545788, 941.2454212454213, 787.3260073260074]"
2025-11-19T16:19:28.521253,/muse/eeg,"[827.2161172161173, 269.5604395604396, 924.3223443223443, 755.0915750915751]"
2025-11-19T16:19:28.543590,/muse/eeg,"[732.1245421245421, 92.27106227106228, 781.6849816849817, 682.5641025641025]"
2025-11-19T16:19:28.606715,/muse/eeg,"[732.1245421245421, 92.27106227106228, 781.6849816849817, 682.5641025641025]"
2025-11-19T16:19:28.589225,/muse/eeg,"[732.1245421245421, 92.27106227106228, 781.6849816849817, 682.5641025641025]"
2025-11-19T16:19:28.738242,/muse/eeg,"[732.1245421245421, 92.27106227106228, 781.6849816849817, 682.5641025641025]"
2025-11-19T16:19:28.671616,/muse/eeg,"[732.1245421245421, 92.27106227106228, 781.6849816849817, 682.5641025641025]"
2025-11-19T16:19:28.836012,/muse/eeg,"[732.1245421245421, 92.27106227106228, 781.6849816849817, 682.5641025641025]"
2025-11-19T16:19:28.920439,/muse/eeg,"[732.1245421245421, 92.27106227106228, 781.6849816849817, 682.5641025641025]"
2025-11-19T16:19:28.987127,/muse/eeg,"[719.2307692307693, 65.67765567765568, 844.5421245421246, 653.956043956044]"
2025-11-19T16:19:29.037834,/muse/eeg,"[719.2307692307693, 65.67765567765568, 844.5421245421246, 653.956043956044]"
2025-11-19T16:19:29.088685,/muse/eeg,"[719.2307692307693, 65.67765567765568, 844.5421245421246, 653.956043956044]"
2025-11-19T16:19:29.107451,/muse/eeg,"[819.5604395604396, 460.1465201465202, 864.2857142857143, 778.8644688644689]"
2025-11-19T16:19:29.171871,/muse/eeg,"[711.1721611721612, 203.0769230769231, 814.7252747252747, 673.2967032967033]"
2025-11-19T16:19:29.240905,/muse/eeg,"[711.1721611721612, 203.0769230769231, 814.7252747252747, 673.2967032967033]"
2025-11-19T16:19:29.205756,/muse/eeg,"[711.1721611721612, 203.0769230769231, 814.7252747252747, 673.2967032967033]"
2025-11-19T16:19:29.287672,/muse/eeg,"[711.1721611721612, 203.0769230769231, 814.7252747252747, 673.2967032967033]"
2025-11-19T16:19:29.354976,/muse/eeg,"[711.1721611721612, 203.0769230769231, 814.7252747252747, 673.2967032967033]"
2025-11-19T16:19:29.406121,/muse/eeg,"[711.1721611721612, 203.0769230769231, 814.7252747252747, 673.2967032967033]"
2025-11-19T16:19:29.605534,/muse/eeg,"[711.1721611721612, 203.0769230769231, 814.7252747252747, 673.2967032967033]"
2025-11-19T16:19:29.639494,/muse/eeg,"[711.1721611721612, 203.0769230769231, 814.7252747252747, 673.2967032967033]"
2025-11-19T16:19:29.705096,/muse/eeg,"[711.1721611721612, 203.0769230769231, 814.7252747252747, 673.2967032967033]"
2025-11-19T16:19:29.523185,/muse/eeg,"[711.1721611721612, 203.0769230769231, 814.7252747252747, 673.2967032967033]"
2025-11-19T16:19:29.739187,/muse/eeg,"[711.1721611721612, 203.0769230769231, 814.7252747252747, 673.2967032967033]"
2025-11-19T16:19:29.760398,/muse/eeg,"[723.6630036630037, 322.34432234432234, 851.7948717948718, 664.0293040293041]"
2025-11-19T16:19:29.854444,/muse/eeg,"[781.6849816849817, 141.83150183150184, 856.6300366300367, 732.5274725274726]"
2025-11-19T16:19:29.906354,/muse/eeg,"[726.0805860805862, 36.26373626373626, 807.0695970695971, 699.8901098901099]"
2025-11-19T16:19:29.955616,/muse/eeg,"[742.6007326007326, 489.5604395604396, 921.5018315018315, 710.7692307692308]"
2025-11-19T16:19:29.976753,/muse/eeg,"[742.6007326007326, 489.5604395604396, 921.5018315018315, 710.7692307692308]"
2025-11-19T16:19:30.056447,/muse/eeg,"[742.6007326007326, 489.5604395604396, 921.5018315018315, 710.7692307692308]"
2025-11-19T16:19:30.138858,/muse/eeg,"[742.6007326007326, 489.5604395604396, 921.5018315018315, 710.7692307692308]"
2025-11-19T16:19:30.173490,/muse/eeg,"[742.6007326007326, 489.5604395604396, 921.5018315018315, 710.7692307692308]"
2025-11-19T16:19:30.221950,/muse/eeg,"[742.6007326007326, 489.5604395604396, 921.5018315018315, 710.7692307692308]"
2025-11-19T16:19:30.289635,/muse/eeg,"[742.6007326007326, 489.5604395604396, 921.5018315018315, 710.7692307692308]"
2025-11-19T16:19:30.372263,/muse/eeg,"[742.6007326007326, 489.5604395604396, 921.5018315018315, 710.7692307692308]"
2025-11-19T16:19:30.407123,/muse/eeg,"[674.5054945054945, 300.989010989011, 842.1245421245421, 648.3150183150183]"
2025-11-19T16:19:30.487539,/muse/eeg,"[749.4505494505495, 484.32234432234435, 915.054945054945, 741.7948717948718]"
2025-11-19T16:19:30.543796,/muse/eeg,"[749.4505494505495, 484.32234432234435, 915.054945054945, 741.7948717948718]"
2025-11-19T16:19:30.577237,/muse/eeg,"[749.4505494505495, 484.32234432234435, 915.054945054945, 741.7948717948718]"
2025-11-19T16:19:30.657339,/muse/eeg,"[749.4505494505495, 484.32234432234435, 915.054945054945, 741.7948717948718]"
2025-11-19T16:19:30.606942,/muse/eeg,"[749.4505494505495, 484.32234432234435, 915.054945054945, 741.7948717948718]"
2025-11-19T16:19:30.819720,/muse/eeg,"[749.4505494505495, 484.32234432234435, 915.054945054945, 741.7948717948718]"
2025-11-19T16:19:30.835614,/muse/eeg,"[749.4505494505495, 484.32234432234435, 915.054945054945, 741.7948717948718]"
2025-11-19T16:19:30.856111,/muse/eeg,"[749.4505494505495, 484.32234432234435, 915.054945054945, 741.7948717948718]"
2025-11-19T16:19:30.923729,/muse/eeg,"[749.4505494505495, 484.32234432234435, 915.054945054945, 741.7948717948718]"
2025-11-19T16:19:31.040786,/muse/eeg,"[749.4505494505495, 484.32234432234435, 915.054945054945, 741.7948717948718]"
2025-11-19T16:19:30.988864,/muse/eeg,"[749.4505494505495, 484.32234432234435, 915.054945054945, 741.7948717948718]"
2025-11-19T16:19:31.073536,/muse/eeg,"[682.967032967033, 221.6117216117216, 857.032967032967, 691.025641025641]"
2025-11-19T16:19:31.096613,/muse/eeg,"[720.8424908424909, 243.77289377289378, 855.4212454212454, 719.6336996336996]"
2025-11-19T16:19:31.171545,/muse/eeg,"[754.2857142857143, 222.41758241758242, 951.7216117216118, 733.7362637362637]"
2025-11-19T16:19:31.238179,/muse/eeg,"[662.014652014652, 156.73992673992674, 965.8241758241759, 643.0769230769231]"
2025-11-19T16:19:31.275254,/muse/eeg,"[743.0036630036631, 305.42124542124543, 944.8717948717949, 737.3626373626374]"
2025-11-19T16:19:31.322836,/muse/eeg,"[743.0036630036631, 305.42124542124543, 944.8717948717949, 737.3626373626374]"
2025-11-19T16:19:31.387208,/muse/eeg,"[743.0036630036631, 305.42124542124543, 944.8717948717949, 737.3626373626374]"
2025-11-19T16:19:31.424206,/muse/eeg,"[743.0036630036631, 305.42124542124543, 944.8717948717949, 737.3626373626374]"
2025-11-19T16:19:31.489323,/muse/eeg,"[743.0036630036631, 305.42124542124543, 944.8717948717949, 737.3626373626374]"
2025-11-19T16:19:31.553926,/muse/eeg,"[743.0036630036631, 305.42124542124543, 944.8717948717949, 737.3626373626374]"
2025-11-19T16:19:31.576873,/muse/eeg,"[743.0036630036631, 305.42124542124543, 944.8717948717949, 737.3626373626374]"
2025-11-19T16:19:31.655138,/muse/eeg,"[743.0036630036631, 305.42124542124543, 944.8717948717949, 737.3626373626374]"
2025-11-19T16:19:31.689563,/muse/eeg,"[753.4798534798535, 211.94139194139194, 913.4432234432235, 764.7619047619048]"
2025-11-19T16:19:31.770812,/muse/eeg,"[649.5238095238095, 213.55311355311355, 907.8021978021978, 638.2417582417582]"
2025-11-19T16:19:31.872369,/muse/eeg,"[649.5238095238095, 213.55311355311355, 907.8021978021978, 638.2417582417582]"
2025-11-19T16:19:31.904452,/muse/eeg,"[643.8827838827839, 70.51282051282051, 918.2783882783883, 732.5274725274726]"
2025-11-19T16:19:31.974077,/muse/eeg,"[653.1501831501831, 5.641025641025641, 869.1208791208792, 652.7472527472528]"
2025-11-19T16:19:32.055265,/muse/eeg,"[653.1501831501831, 5.641025641025641, 869.1208791208792, 652.7472527472528]"
2025-11-19T16:19:32.122680,/muse/eeg,"[653.1501831501831, 5.641025641025641, 869.1208791208792, 652.7472527472528]"
2025-11-19T16:19:32.156726,/muse/eeg,"[653.1501831501831, 5.641025641025641, 869.1208791208792, 652.7472527472528]"
2025-11-19T16:19:32.243366,/muse/eeg,"[653.1501831501831, 5.641025641025641, 869.1208791208792, 652.7472527472528]"
2025-11-19T16:19:32.205964,/muse/eeg,"[653.1501831501831, 5.641025641025641, 869.1208791208792, 652.7472527472528]"
2025-11-19T16:19:32.291096,/muse/eeg,"[653.1501831501831, 5.641025641025641, 869.1208791208792, 652.7472527472528]"
2025-11-19T16:19:32.312587,/muse/eeg,"[653.1501831501831, 5.641025641025641, 869.1208791208792, 652.7472527472528]"
2025-11-19T16:19:32.373683,/muse/eeg,"[731.7216117216118, 375.12820512820514, 927.1428571428572, 765.9706959706959]"
2025-11-19T16:19:32.438589,/muse/eeg,"[641.8681318681319, 0.0, 802.6373626373627, 657.985347985348]"
2025-11-19T16:19:32.472827,/muse/eeg,"[641.8681318681319, 0.0, 802.6373626373627, 657.985347985348]"
2025-11-19T16:19:32.507730,/muse/eeg,"[641.8681318681319, 0.0, 802.6373626373627, 657.985347985348]"
2025-11-19T16:19:32.538200,/muse/eeg,"[641.8681318681319, 0.0, 802.6373626373627, 657.985347985348]"
2025-11-19T16:19:32.606228,/muse/eeg,"[641.8681318681319, 0.0, 802.6373626373627, 657.985347985348]"
2025-11-19T16:19:32.655398,/muse/eeg,"[641.8681318681319, 0.0, 802.6373626373627, 657.985347985348]"
2025-11-19T16:19:32.670680,/muse/eeg,"[641.8681318681319, 0.0, 802.6373626373627, 657.985347985348]"
2025-11-19T16:19:32.737768,/muse/eeg,"[641.8681318681319, 0.0, 802.6373626373627, 657.985347985348]"
2025-11-19T16:19:32.773668,/muse/eeg,"[641.8681318681319, 0.0, 802.6373626373627, 657.985347985348]"
2025-11-19T16:19:32.841168,/muse/eeg,"[641.8681318681319, 0.0, 802.6373626373627, 657.985347985348]"
2025-11-19T16:19:32.907354,/muse/eeg,"[641.8681318681319, 0.0, 802.6373626373627, 657.985347985348]"
2025-11-19T16:19:33.006356,/muse/eeg,"[663.6263736263736, 45.12820512820513, 888.4615384615385, 641.4652014652015]"
2025-11-19T16:19:33.056628,/muse/eeg,"[663.6263736263736, 45.12820512820513, 888.4615384615385, 641.4652014652015]"
2025-11-19T16:19:33.106363,/muse/eeg,"[663.6263736263736, 45.12820512820513, 888.4615384615385, 641.4652014652015]"
2025-11-19T16:19:33.140010,/muse/eeg,"[663.6263736263736, 45.12820512820513, 888.4615384615385, 641.4652014652015]"
2025-11-19T16:19:33.173040,/muse/eeg,"[703.1135531135532, 283.6630036630037, 869.92673992674, 706.7399267399268]"
2025-11-19T16:19:33.240787,/muse/eeg,"[703.1135531135532, 283.6630036630037, 869.92673992674, 706.7399267399268]"
2025-11-19T16:19:33.321891,/muse/eeg,"[703.1135531135532, 283.6630036630037, 869.92673992674, 706.7399267399268]"
2025-11-19T16:19:33.471470,/muse/eeg,"[703.1135531135532, 283.6630036630037, 869.92673992674, 706.7399267399268]"
2025-11-19T16:19:33.538800,/muse/eeg,"[703.1135531135532, 283.6630036630037, 869.92673992674, 706.7399267399268]"
2025-11-19T16:19:33.589848,/muse/eeg,"[703.1135531135532, 283.6630036630037, 869.92673992674, 706.7399267399268]"
2025-11-19T16:19:33.690470,/muse/eeg,"[703.1135531135532, 283.6630036630037, 869.92673992674, 706.7399267399268]"
2025-11-19T16:19:33.713090,/muse/eeg,"[779.2673992673992, 67.28937728937728, 841.7216117216118, 778.0586080586081]"
2025-11-19T16:19:33.758222,/muse/eeg,"[707.1428571428571, 15.714285714285715, 829.6336996336996, 678.5347985347986]"
2025-11-19T16:19:33.791519,/muse/eeg,"[756.3003663003664, 26.996336996336996, 841.3186813186813, 766.7765567765568]"
2025-11-19T16:19:33.824435,/muse/eeg,"[751.0622710622711, 17.72893772893773, 825.2014652014652, 740.989010989011]"
2025-11-19T16:19:33.904966,/muse/eeg,"[758.3150183150184, 219.5970695970696, 882.014652014652, 761.5384615384615]"
2025-11-19T16:19:33.888976,/muse/eeg,"[758.3150183150184, 219.5970695970696, 882.014652014652, 761.5384615384615]"
2025-11-19T16:19:33.941659,/muse/eeg,"[758.3150183150184, 219.5970695970696, 882.014652014652, 761.5384615384615]"
2025-11-19T16:19:34.006935,/muse/eeg,"[758.3150183150184, 219.5970695970696, 882.014652014652, 761.5384615384615]"
2025-11-19T16:19:34.055771,/muse/eeg,"[758.3150183150184, 219.5970695970696, 882.014652014652, 761.5384615384615]"
2025-11-19T16:19:34.105941,/muse/eeg,"[758.3150183150184, 219.5970695970696, 882.014652014652, 761.5384615384615]"
2025-11-19T16:19:34.171850,/muse/eeg,"[758.3150183150184, 219.5970695970696, 882.014652014652, 761.5384615384615]"
2025-11-19T16:19:34.208347,/muse/eeg,"[758.3150183150184, 219.5970695970696, 882.014652014652, 761.5384615384615]"
2025-11-19T16:19:34.274592,/muse/eeg,"[714.7985347985348, 87.43589743589745, 850.5860805860806, 722.8571428571429]"
2025-11-19T16:19:34.241472,/muse/eeg,"[697.0695970695971, 443.2234432234432, 871.5384615384615, 681.7582417582418]"
2025-11-19T16:19:34.354680,/muse/eeg,"[705.5311355311355, 19.340659340659343, 839.7069597069598, 689.0109890109891]"
2025-11-19T16:19:34.372964,/muse/eeg,"[705.5311355311355, 19.340659340659343, 839.7069597069598, 689.0109890109891]"
2025-11-19T16:19:34.421870,/muse/eeg,"[705.5311355311355, 19.340659340659343, 839.7069597069598, 689.0109890109891]"
2025-11-19T16:19:34.391277,/muse/eeg,"[705.5311355311355, 19.340659340659343, 839.7069597069598, 689.0109890109891]"
2025-11-19T16:19:34.588244,/muse/eeg,"[760.7326007326008, 248.2051282051282, 898.9377289377289, 744.2124542124542]"
2025-11-19T16:19:34.508918,/muse/eeg,"[705.5311355311355, 19.340659340659343, 839.7069597069598, 689.0109890109891]"
2025-11-19T16:19:34.640238,/muse/eeg,"[760.7326007326008, 248.2051282051282, 898.9377289377289, 744.2124542124542]"
2025-11-19T16:19:34.754770,/muse/eeg,"[760.7326007326008, 248.2051282051282, 898.9377289377289, 744.2124542124542]"
2025-11-19T16:19:34.839681,/muse/eeg,"[760.7326007326008, 248.2051282051282, 898.9377289377289, 744.2124542124542]"
2025-11-19T16:19:34.921460,/muse/eeg,"[760.7326007326008, 248.2051282051282, 898.9377289377289, 744.2124542124542]"
2025-11-19T16:19:35.005827,/muse/eeg,"[748.2417582417582, 426.7032967032967, 884.8351648351648, 749.8534798534798]"
2025-11-19T16:19:35.038879,/muse/eeg,"[746.6300366300367, 21.355311355311358, 826.007326007326, 693.8461538461538]"
2025-11-19T16:19:35.073759,/muse/eeg,"[678.1318681318681, 0.0, 767.1794871794872, 649.92673992674]"
2025-11-19T16:19:35.110195,/muse/eeg,"[719.6336996336996, 130.14652014652015, 857.032967032967, 673.6996336996338]"
2025-11-19T16:19:35.140457,/muse/eeg,"[719.6336996336996, 130.14652014652015, 857.032967032967, 673.6996336996338]"
2025-11-19T16:19:35.173798,/muse/eeg,"[719.6336996336996, 130.14652014652015, 857.032967032967, 673.6996336996338]"
2025-11-19T16:19:35.273872,/muse/eeg,"[719.6336996336996, 130.14652014652015, 857.032967032967, 673.6996336996338]"
2025-11-19T16:19:35.240692,/muse/eeg,"[719.6336996336996, 130.14652014652015, 857.032967032967, 673.6996336996338]"
2025-11-19T16:19:35.324963,/muse/eeg,"[719.6336996336996, 130.14652014652015, 857.032967032967, 673.6996336996338]"
2025-11-19T16:19:35.440209,/muse/eeg,"[719.6336996336996, 130.14652014652015, 857.032967032967, 673.6996336996338]"
2025-11-19T16:19:35.490435,/muse/eeg,"[719.6336996336996, 130.14652014652015, 857.032967032967, 673.6996336996338]"
2025-11-19T16:19:35.558447,/muse/eeg,"[719.6336996336996, 130.14652014652015, 857.032967032967, 673.6996336996338]"
2025-11-19T16:19:35.673714,/muse/eeg,"[790.1465201465202, 404.94505494505495, 850.989010989011, 762.7472527472528]"
2025-11-19T16:19:35.689385,/muse/eeg,"[785.3113553113553, 118.46153846153847, 812.3076923076924, 757.5091575091575]"
2025-11-19T16:19:35.723838,/muse/eeg,"[771.2087912087912, 109.5970695970696, 826.8131868131868, 718.4249084249085]"
2025-11-19T16:19:35.806503,/muse/eeg,"[771.2087912087912, 109.5970695970696, 826.8131868131868, 718.4249084249085]"
2025-11-19T16:19:35.888925,/muse/eeg,"[771.2087912087912, 109.5970695970696, 826.8131868131868, 718.4249084249085]"
2025-11-19T16:19:35.906516,/muse/eeg,"[771.2087912087912, 109.5970695970696, 826.8131868131868, 718.4249084249085]"
2025-11-19T16:19:35.924875,/muse/eeg,"[771.2087912087912, 109.5970695970696, 826.8131868131868, 718.4249084249085]"
2025-11-19T16:19:36.009332,/muse/eeg,"[806.2637362637363, 2.417582417582418, 790.1465201465202, 775.2380952380953]"
2025-11-19T16:19:36.026636,/muse/eeg,"[694.2490842490843, 221.6117216117216, 825.2014652014652, 627.7655677655678]"
2025-11-19T16:19:36.057943,/muse/eeg,"[694.2490842490843, 221.6117216117216, 825.2014652014652, 627.7655677655678]"
2025-11-19T16:19:36.138118,/muse/eeg,"[694.2490842490843, 221.6117216117216, 825.2014652014652, 627.7655677655678]"
2025-11-19T16:19:36.209755,/muse/eeg,"[694.2490842490843, 221.6117216117216, 825.2014652014652, 627.7655677655678]"
2025-11-19T16:19:36.240746,/muse/eeg,"[845.3479853479854, 14.505494505494505, 798.2051282051282, 786.5201465201466]"
2025-11-19T16:19:36.274130,/muse/eeg,"[817.948717948718, 181.72161172161174, 836.886446886447, 750.6593406593407]"
2025-11-19T16:19:36.313218,/muse/eeg,"[848.5714285714286, 440.4029304029304, 848.1684981684982, 760.7326007326008]"
2025-11-19T16:19:36.389918,/muse/eeg,"[736.5567765567765, 310.65934065934067, 757.9120879120879, 685.3846153846154]"
2025-11-19T16:19:36.425238,/muse/eeg,"[736.5567765567765, 310.65934065934067, 757.9120879120879, 685.3846153846154]"
2025-11-19T16:19:36.506675,/muse/eeg,"[736.5567765567765, 310.65934065934067, 757.9120879120879, 685.3846153846154]"
2025-11-19T16:19:36.557573,/muse/eeg,"[736.5567765567765, 310.65934065934067, 757.9120879120879, 685.3846153846154]"
2025-11-19T16:19:36.608087,/muse/eeg,"[736.5567765567765, 310.65934065934067, 757.9120879120879, 685.3846153846154]"
2025-11-19T16:19:36.656630,/muse/eeg,"[736.5567765567765, 310.65934065934067, 757.9120879120879, 685.3846153846154]"
2025-11-19T16:19:36.671693,/muse/eeg,"[736.5567765567765, 310.65934065934067, 757.9120879120879, 685.3846153846154]"
2025-11-19T16:19:36.738238,/muse/eeg,"[736.5567765567765, 310.65934065934067, 757.9120879120879, 685.3846153846154]"
2025-11-19T16:19:36.775641,/muse/eeg,"[736.5567765567765, 310.65934065934067, 757.9120879120879, 685.3846153846154]"
2025-11-19T16:19:36.856037,/muse/eeg,"[683.3699633699634, 118.05860805860806, 781.6849816849817, 626.959706959707]"
2025-11-19T16:19:36.907650,/muse/eeg,"[788.5347985347986, 411.39194139194143, 799.8168498168499, 697.0695970695971]"
2025-11-19T16:19:36.940069,/muse/eeg,"[788.5347985347986, 411.39194139194143, 799.8168498168499, 697.0695970695971]"
2025-11-19T16:19:37.008742,/muse/eeg,"[788.5347985347986, 411.39194139194143, 799.8168498168499, 697.0695970695971]"
2025-11-19T16:19:37.105507,/muse/eeg,"[788.5347985347986, 411.39194139194143, 799.8168498168499, 697.0695970695971]"
2025-11-19T16:19:37.190513,/muse/eeg,"[780.4761904761905, 313.0769230769231, 724.8717948717949, 708.3516483516484]"
2025-11-19T16:19:37.258818,/muse/eeg,"[780.4761904761905, 313.0769230769231, 724.8717948717949, 708.3516483516484]"
2025-11-19T16:19:37.207163,/muse/eeg,"[780.4761904761905, 313.0769230769231, 724.8717948717949, 708.3516483516484]"
2025-11-19T16:19:37.325129,/muse/eeg,"[780.4761904761905, 313.0769230769231, 724.8717948717949, 708.3516483516484]"
2025-11-19T16:19:37.389504,/muse/eeg,"[780.4761904761905, 313.0769230769231, 724.8717948717949, 708.3516483516484]"
2025-11-19T16:19:37.490880,/muse/eeg,"[780.4761904761905, 313.0769230769231, 724.8717948717949, 708.3516483516484]"
2025-11-19T16:19:37.541686,/muse/eeg,"[780.4761904761905, 313.0769230769231, 724.8717948717949, 708.3516483516484]"
2025-11-19T16:19:37.556699,/muse/eeg,"[647.9120879120879, 58.82783882783883, 699.4871794871796, 610.0366300366301]"
2025-11-19T16:19:37.675618,/muse/eeg,"[756.7032967032967, 203.88278388278388, 709.9633699633699, 701.5018315018315]"
2025-11-19T16:19:37.807055,/muse/eeg,"[596.3369963369963, 46.739926739926744, 739.7802197802198, 560.8791208791209]"
2025-11-19T16:19:37.860791,/muse/eeg,"[612.0512820512821, 95.0915750915751, 756.7032967032967, 576.1904761904763]"
2025-11-19T16:19:37.838387,/muse/eeg,"[763.5531135531136, 49.56043956043956, 720.0366300366301, 713.1868131868132]"
2025-11-19T16:19:37.876173,/muse/eeg,"[803.8461538461539, 163.1868131868132, 744.6153846153846, 725.2747252747253]"
2025-11-19T16:19:37.930260,/muse/eeg,"[803.8461538461539, 163.1868131868132, 744.6153846153846, 725.2747252747253]"
2025-11-19T16:19:37.976050,/muse/eeg,"[803.8461538461539, 163.1868131868132, 744.6153846153846, 725.2747252747253]"
2025-11-19T16:19:38.025523,/muse/eeg,"[803.8461538461539, 163.1868131868132, 744.6153846153846, 725.2747252747253]"
2025-11-19T16:19:38.090487,/muse/eeg,"[803.8461538461539, 163.1868131868132, 744.6153846153846, 725.2747252747253]"
2025-11-19T16:19:38.141431,/muse/eeg,"[803.8461538461539, 163.1868131868132, 744.6153846153846, 725.2747252747253]"
2025-11-19T16:19:38.190482,/muse/eeg,"[803.8461538461539, 163.1868131868132, 744.6153846153846, 725.2747252747253]"
2025-11-19T16:19:38.212181,/muse/eeg,"[786.9230769230769, 77.36263736263737, 758.3150183150184, 724.4688644688645]"
2025-11-19T16:19:38.241462,/muse/eeg,"[702.3076923076924, 93.88278388278388, 718.4249084249085, 743.4065934065934]"
2025-11-19T16:19:38.259448,/muse/eeg,"[702.3076923076924, 93.88278388278388, 718.4249084249085, 656.3736263736264]"
2025-11-19T16:19:38.275956,/muse/eeg,"[775.6410256410256, 4.835164835164836, 718.8278388278388, 722.8571428571429]"
2025-11-19T16:19:38.295136,/muse/eeg,"[739.7802197802198, 381.978021978022, 775.6410256410256, 682.5641025641025]"
2025-11-19T16:19:38.407589,/muse/eeg,"[755.4945054945055, 92.27106227106228, 754.6886446886447, 685.3846153846154]"
2025-11-19T16:19:38.442932,/muse/eeg,"[755.4945054945055, 92.27106227106228, 754.6886446886447, 685.3846153846154]"
2025-11-19T16:19:38.523173,/muse/eeg,"[755.4945054945055, 92.27106227106228, 754.6886446886447, 685.3846153846154]"
2025-11-19T16:19:38.560021,/muse/eeg,"[755.4945054945055, 92.27106227106228, 754.6886446886447, 685.3846153846154]"
2025-11-19T16:19:38.657776,/muse/eeg,"[755.4945054945055, 92.27106227106228, 754.6886446886447, 685.3846153846154]"
2025-11-19T16:19:38.708405,/muse/eeg,"[755.4945054945055, 92.27106227106228, 754.6886446886447, 685.3846153846154]"
2025-11-19T16:19:38.774978,/muse/eeg,"[755.4945054945055, 92.27106227106228, 754.6886446886447, 685.3846153846154]"
2025-11-19T16:19:38.808329,/muse/eeg,"[841.7216117216118, 514.1391941391942, 809.4871794871796, 769.5970695970697]"
2025-11-19T16:19:38.889657,/muse/eeg,"[668.0586080586081, 80.18315018315019, 765.5677655677656, 640.2564102564103]"
2025-11-19T16:19:38.942890,/muse/eeg,"[668.0586080586081, 80.18315018315019, 765.5677655677656, 640.2564102564103]"
2025-11-19T16:19:39.006779,/muse/eeg,"[668.0586080586081, 80.18315018315019, 765.5677655677656, 640.2564102564103]"
2025-11-19T16:19:39.059413,/muse/eeg,"[668.0586080586081, 80.18315018315019, 765.5677655677656, 640.2564102564103]"
2025-11-19T16:19:39.091506,/muse/eeg,"[668.0586080586081, 80.18315018315019, 765.5677655677656, 640.2564102564103]"
2025-11-19T16:19:39.143463,/muse/eeg,"[668.0586080586081, 80.18315018315019, 765.5677655677656, 640.2564102564103]"
2025-11-19T16:19:39.192928,/muse/eeg,"[668.0586080586081, 80.18315018315019, 765.5677655677656, 640.2564102564103]"
2025-11-19T16:19:39.308583,/muse/eeg,"[668.0586080586081, 80.18315018315019, 765.5677655677656, 640.2564102564103]"
2025-11-19T16:19:39.343431,/muse/eeg,"[668.0586080586081, 80.18315018315019, 765.5677655677656, 640.2564102564103]"
2025-11-19T16:19:39.391913,/muse/eeg,"[668.0586080586081, 80.18315018315019, 765.5677655677656, 640.2564102564103]"
2025-11-19T16:19:39.424866,/muse/eeg,"[668.0586080586081, 80.18315018315019, 765.5677655677656, 640.2564102564103]"
2025-11-19T16:19:39.509591,/muse/eeg,"[857.032967032967, 522.6007326007326, 778.0586080586081, 788.9377289377289]"
2025-11-19T16:19:39.543582,/muse/eeg,"[852.1978021978023, 292.9304029304029, 755.8974358974359, 784.1025641025641]"
2025-11-19T16:19:39.592283,/muse/eeg,"[660.8058608058608, 79.78021978021978, 799.4139194139194, 635.4212454212454]"
2025-11-19T16:19:39.463906,/muse/eeg,"[789.3406593406594, 418.64468864468864, 823.1868131868132, 725.6776556776557]"
2025-11-19T16:19:39.642015,/muse/eeg,"[821.1721611721612, 392.8571428571429, 828.021978021978, 756.7032967032967]"
2025-11-19T16:19:39.691965,/muse/eeg,"[689.4139194139194, 170.84249084249086, 759.92673992674, 653.5531135531136]"
2025-11-19T16:19:39.809198,/muse/eeg,"[689.4139194139194, 170.84249084249086, 759.92673992674, 653.5531135531136]"
2025-11-19T16:19:39.830793,/muse/eeg,"[689.4139194139194, 170.84249084249086, 759.92673992674, 653.5531135531136]"
2025-11-19T16:19:39.825115,/muse/eeg,"[689.4139194139194, 170.84249084249086, 759.92673992674, 653.5531135531136]"
2025-11-19T16:19:39.860155,/muse/eeg,"[689.4139194139194, 170.84249084249086, 759.92673992674, 653.5531135531136]"
2025-11-19T16:19:39.894483,/muse/eeg,"[689.4139194139194, 170.84249084249086, 759.92673992674, 653.5531135531136]"
2025-11-19T16:19:39.943835,/muse/eeg,"[689.4139194139194, 170.84249084249086, 759.92673992674, 653.5531135531136]"
2025-11-19T16:19:39.991965,/muse/eeg,"[668.4615384615385, 8.058608058608058, 744.6153846153846, 636.6300366300367]"
2025-11-19T16:19:40.007746,/muse/eeg,"[801.8315018315019, 87.83882783882784, 784.9084249084249, 731.7216117216118]"
2025-11-19T16:19:40.076534,/muse/eeg,"[845.7509157509157, 266.3369963369963, 817.948717948718, 772.014652014652]"
2025-11-19T16:19:40.140434,/muse/eeg,"[655.1648351648352, 138.6080586080586, 769.1941391941392, 638.2417582417582]"
2025-11-19T16:19:40.224799,/muse/eeg,"[721.2454212454213, 0.0, 747.4358974358975, 697.8754578754579]"
2025-11-19T16:19:40.357785,/muse/eeg,"[785.3113553113553, 462.967032967033, 851.3919413919414, 737.7655677655678]"
2025-11-19T16:19:40.408832,/muse/eeg,"[785.3113553113553, 462.967032967033, 851.3919413919414, 737.7655677655678]"
2025-11-19T16:19:40.459010,/muse/eeg,"[785.3113553113553, 462.967032967033, 851.3919413919414, 737.7655677655678]"
2025-11-19T16:19:40.492492,/muse/eeg,"[785.3113553113553, 462.967032967033, 851.3919413919414, 737.7655677655678]"
2025-11-19T16:19:40.525603,/muse/eeg,"[785.3113553113553, 462.967032967033, 851.3919413919414, 737.7655677655678]"
2025-11-19T16:19:40.576790,/muse/eeg,"[785.3113553113553, 462.967032967033, 851.3919413919414, 737.7655677655678]"
2025-11-19T16:19:40.630103,/muse/eeg,"[651.941391941392, 225.64102564102564, 774.0293040293041, 651.941391941392]"
2025-11-19T16:19:40.642643,/muse/eeg,"[787.7289377289378, 24.98168498168498, 786.9230769230769, 724.4688644688645]"
2025-11-19T16:19:40.723771,/muse/eeg,"[755.8974358974359, 247.39926739926742, 838.4981684981685, 696.2637362637363]"
2025-11-19T16:19:40.806403,/muse/eeg,"[859.047619047619, 557.2527472527472, 823.5897435897436, 776.0439560439561]"
2025-11-19T16:19:40.859080,/muse/eeg,"[859.047619047619, 557.2527472527472, 823.5897435897436, 776.0439560439561]"
2025-11-19T16:19:40.897677,/muse/eeg,"[859.047619047619, 557.2527472527472, 823.5897435897436, 776.0439560439561]"
2025-11-19T16:19:40.943499,/muse/eeg,"[859.047619047619, 557.2527472527472, 823.5897435897436, 776.0439560439561]"
2025-11-19T16:19:41.040376,/muse/eeg,"[859.047619047619, 557.2527472527472, 823.5897435897436, 776.0439560439561]"
2025-11-19T16:19:41.077247,/muse/eeg,"[859.047619047619, 557.2527472527472, 823.5897435897436, 776.0439560439561]"
2025-11-19T16:19:41.110953,/muse/eeg,"[859.047619047619, 557.2527472527472, 823.5897435897436, 776.0439560439561]"
2025-11-19T16:19:41.158964,/muse/eeg,"[859.047619047619, 557.2527472527472, 823.5897435897436, 776.0439560439561]"
2025-11-19T16:19:41.191677,/muse/eeg,"[859.047619047619, 557.2527472527472, 823.5897435897436, 776.0439560439561]"
2025-11-19T16:19:41.226867,/muse/eeg,"[639.4505494505495, 63.26007326007326, 742.1978021978023, 632.1978021978022]"
2025-11-19T16:19:41.310714,/muse/eeg,"[755.0915750915751, 242.56410256410257, 757.5091575091575, 728.4981684981685]"
2025-11-19T16:19:41.389861,/muse/eeg,"[755.0915750915751, 242.56410256410257, 757.5091575091575, 728.4981684981685]"
2025-11-19T16:19:41.474158,/muse/eeg,"[755.0915750915751, 242.56410256410257, 757.5091575091575, 728.4981684981685]"
2025-11-19T16:19:41.510830,/muse/eeg,"[755.0915750915751, 242.56410256410257, 757.5091575091575, 728.4981684981685]"
2025-11-19T16:19:41.542442,/muse/eeg,"[765.5677655677656, 390.84249084249086, 787.3260073260074, 708.7545787545788]"
2025-11-19T16:19:41.627194,/muse/eeg,"[765.5677655677656, 390.84249084249086, 787.3260073260074, 708.7545787545788]"
2025-11-19T16:19:41.643990,/muse/eeg,"[765.5677655677656, 390.84249084249086, 787.3260073260074, 708.7545787545788]"
2025-11-19T16:19:41.693778,/muse/eeg,"[765.5677655677656, 390.84249084249086, 787.3260073260074, 708.7545787545788]"
2025-11-19T16:19:41.758466,/muse/eeg,"[765.5677655677656, 390.84249084249086, 787.3260073260074, 708.7545787545788]"
2025-11-19T16:19:41.794369,/muse/eeg,"[765.5677655677656, 390.84249084249086, 787.3260073260074, 708.7545787545788]"
2025-11-19T16:19:41.827056,/muse/eeg,"[765.5677655677656, 390.84249084249086, 787.3260073260074, 708.7545787545788]"
2025-11-19T16:19:41.876035,/muse/eeg,"[643.0769230769231, 177.28937728937728, 731.3186813186813, 691.4285714285714]"
2025-11-19T16:19:41.909442,/muse/eeg,"[812.7106227106227, 314.6886446886447, 754.2857142857143, 758.3150183150184]"
2025-11-19T16:19:41.960323,/muse/eeg,"[657.985347985348, 11.684981684981686, 654.7619047619048, 645.0915750915751]"
2025-11-19T16:19:42.026004,/muse/eeg,"[657.985347985348, 11.684981684981686, 654.7619047619048, 645.0915750915751]"
2025-11-19T16:19:42.092644,/muse/eeg,"[657.985347985348, 11.684981684981686, 654.7619047619048, 645.0915750915751]"
2025-11-19T16:19:42.157566,/muse/eeg,"[657.985347985348, 11.684981684981686, 654.7619047619048, 645.0915750915751]"
2025-11-19T16:19:42.257614,/muse/eeg,"[657.985347985348, 11.684981684981686, 654.7619047619048, 645.0915750915751]"
2025-11-19T16:19:42.210795,/muse/eeg,"[657.985347985348, 11.684981684981686, 654.7619047619048, 645.0915750915751]"
2025-11-19T16:19:42.360964,/muse/eeg,"[657.985347985348, 11.684981684981686, 654.7619047619048, 645.0915750915751]"
2025-11-19T16:19:42.327114,/muse/eeg,"[657.985347985348, 11.684981684981686, 654.7619047619048, 645.0915750915751]"
2025-11-19T16:19:42.409567,/muse/eeg,"[657.985347985348, 11.684981684981686, 654.7619047619048, 645.0915750915751]"
2025-11-19T16:19:42.476349,/muse/eeg,"[657.985347985348, 11.684981684981686, 654.7619047619048, 645.0915750915751]"
2025-11-19T16:19:42.508842,/muse/eeg,"[796.1904761904763, 24.57875457875458, 670.0732600732601, 750.6593406593407]"
2025-11-19T16:19:42.592021,/muse/eeg,"[649.5238095238095, 31.42857142857143, 659.1941391941392, 646.7032967032967]"
2025-11-19T16:19:42.613099,/muse/eeg,"[854.6153846153846, 324.76190476190476, 683.7728937728938, 788.1318681318681]"
2025-11-19T16:19:42.661553,/muse/eeg,"[753.8827838827839, 144.65201465201466, 637.8388278388279, 718.4249084249085]"
2025-11-19T16:19:42.758176,/muse/eeg,"[753.8827838827839, 144.65201465201466, 637.8388278388279, 718.4249084249085]"
2025-11-19T16:19:42.860106,/muse/eeg,"[753.8827838827839, 144.65201465201466, 637.8388278388279, 718.4249084249085]"
2025-11-19T16:19:42.960103,/muse/eeg,"[753.8827838827839, 144.65201465201466, 637.8388278388279, 718.4249084249085]"
2025-11-19T16:19:42.994558,/muse/eeg,"[656.3736263736264, 89.04761904761905, 613.2600732600732, 649.92673992674]"
2025-11-19T16:19:43.127566,/muse/eeg,"[656.3736263736264, 89.04761904761905, 613.2600732600732, 649.92673992674]"
2025-11-19T16:19:43.092856,/muse/eeg,"[656.3736263736264, 89.04761904761905, 613.2600732600732, 649.92673992674]"
2025-11-19T16:19:43.226099,/muse/eeg,"[656.3736263736264, 89.04761904761905, 613.2600732600732, 649.92673992674]"
2025-11-19T16:19:43.261013,/muse/eeg,"[656.3736263736264, 89.04761904761905, 613.2600732600732, 649.92673992674]"
2025-11-19T16:19:43.310277,/muse/eeg,"[659.1941391941392, 101.53846153846155, 597.1428571428571, 659.1941391941392]"
2025-11-19T16:19:43.377579,/muse/eeg,"[839.3040293040293, 79.78021978021978, 679.7435897435897, 776.8498168498169]"
2025-11-19T16:19:43.507524,/muse/eeg,"[616.080586080586, 14.505494505494505, 703.919413919414, 618.4981684981685]"
2025-11-19T16:19:43.545236,/muse/eeg,"[741.3919413919414, 134.17582417582418, 669.2673992673992, 708.3516483516484]"
2025-11-19T16:19:43.593276,/muse/eeg,"[741.3919413919414, 134.17582417582418, 669.2673992673992, 708.3516483516484]"
2025-11-19T16:19:43.624350,/muse/eeg,"[741.3919413919414, 134.17582417582418, 669.2673992673992, 708.3516483516484]"
2025-11-19T16:19:43.675377,/muse/eeg,"[741.3919413919414, 134.17582417582418, 669.2673992673992, 708.3516483516484]"
2025-11-19T16:19:43.727837,/muse/eeg,"[741.3919413919414, 134.17582417582418, 669.2673992673992, 708.3516483516484]"
2025-11-19T16:19:43.777651,/muse/eeg,"[741.3919413919414, 134.17582417582418, 669.2673992673992, 708.3516483516484]"
2025-11-19T16:19:43.827098,/muse/eeg,"[741.3919413919414, 134.17582417582418, 669.2673992673992, 708.3516483516484]"
2025-11-19T16:19:43.777651,/muse/eeg,"[741.3919413919414, 134.17582417582418, 669.2673992673992, 708.3516483516484]"
2025-11-19T16:19:43.876187,/muse/eeg,"[672.893772893773, 317.50915750915755, 671.6849816849817, 655.5677655677656]"
2025-11-19T16:19:43.961119,/muse/eeg,"[672.893772893773, 317.50915750915755, 671.6849816849817, 655.5677655677656]"
2025-11-19T16:19:44.011231,/muse/eeg,"[672.893772893773, 317.50915750915755, 671.6849816849817, 655.5677655677656]"
2025-11-19T16:19:44.058658,/muse/eeg,"[672.893772893773, 317.50915750915755, 671.6849816849817, 655.5677655677656]"
2025-11-19T16:19:44.112368,/muse/eeg,"[672.893772893773, 317.50915750915755, 671.6849816849817, 655.5677655677656]"
2025-11-19T16:19:44.127784,/muse/eeg,"[672.893772893773, 317.50915750915755, 671.6849816849817, 655.5677655677656]"
2025-11-19T16:19:44.161585,/muse/eeg,"[762.7472527472528, 183.73626373626374, 621.3186813186813, 716.8131868131868]"
2025-11-19T16:19:44.261386,/muse/eeg,"[842.9304029304029, 415.42124542124543, 642.6739926739926, 773.6263736263736]"
2025-11-19T16:19:44.340536,/muse/eeg,"[842.9304029304029, 415.42124542124543, 642.6739926739926, 773.6263736263736]"
2025-11-19T16:19:44.410104,/muse/eeg,"[842.9304029304029, 415.42124542124543, 642.6739926739926, 773.6263736263736]"
2025-11-19T16:19:44.459204,/muse/eeg,"[842.9304029304029, 415.42124542124543, 642.6739926739926, 773.6263736263736]"
2025-11-19T16:19:44.474754,/muse/eeg,"[842.9304029304029, 415.42124542124543, 642.6739926739926, 773.6263736263736]"
2025-11-19T16:19:44.544969,/muse/eeg,"[711.1721611721612, 461.75824175824175, 624.945054945055, 688.2051282051282]"
2025-11-19T16:19:44.609338,/muse/eeg,"[819.96336996337, 178.0952380952381, 682.5641025641025, 774.0293040293041]"
2025-11-19T16:19:44.710077,/muse/eeg,"[801.025641025641, 337.25274725274727, 691.025641025641, 743.8095238095239]"
2025-11-19T16:19:44.742373,/muse/eeg,"[801.025641025641, 337.25274725274727, 691.025641025641, 743.8095238095239]"
2025-11-19T16:19:44.859546,/muse/eeg,"[801.025641025641, 337.25274725274727, 691.025641025641, 743.8095238095239]"
2025-11-19T16:19:44.911537,/muse/eeg,"[801.025641025641, 337.25274725274727, 691.025641025641, 743.8095238095239]"
2025-11-19T16:19:45.028063,/muse/eeg,"[801.025641025641, 337.25274725274727, 691.025641025641, 743.8095238095239]"
2025-11-19T16:19:44.943820,/muse/eeg,"[801.025641025641, 337.25274725274727, 691.025641025641, 743.8095238095239]"
2025-11-19T16:19:45.077067,/muse/eeg,"[801.025641025641, 337.25274725274727, 691.025641025641, 743.8095238095239]"
2025-11-19T16:19:45.141299,/muse/eeg,"[801.025641025641, 337.25274725274727, 691.025641025641, 743.8095238095239]"
2025-11-19T16:19:45.245603,/muse/eeg,"[606.8131868131868, 58.42490842490842, 616.4835164835165, 622.9304029304029]"
2025-11-19T16:19:45.209179,/muse/eeg,"[801.025641025641, 337.25274725274727, 691.025641025641, 743.8095238095239]"
2025-11-19T16:19:45.294987,/muse/eeg,"[858.6446886446887, 564.9084249084249, 666.0439560439561, 793.7728937728938]"
2025-11-19T16:19:45.328535,/muse/eeg,"[631.7948717948718, 0.0, 564.9084249084249, 657.985347985348]"
2025-11-19T16:19:45.392305,/muse/eeg,"[880.0, 230.87912087912088, 702.3076923076924, 827.2161172161173]"
2025-11-19T16:19:45.443826,/muse/eeg,"[661.2087912087912, 0.0, 637.4358974358975, 698.6813186813187]"
2025-11-19T16:19:45.477193,/muse/eeg,"[661.2087912087912, 0.0, 637.4358974358975, 698.6813186813187]"
2025-11-19T16:19:45.527159,/muse/eeg,"[661.2087912087912, 0.0, 637.4358974358975, 698.6813186813187]"
2025-11-19T16:19:45.609077,/muse/eeg,"[661.2087912087912, 0.0, 637.4358974358975, 698.6813186813187]"
2025-11-19T16:19:45.660732,/muse/eeg,"[661.2087912087912, 0.0, 637.4358974358975, 698.6813186813187]"
2025-11-19T16:19:45.709949,/muse/eeg,"[661.2087912087912, 0.0, 637.4358974358975, 698.6813186813187]"
2025-11-19T16:19:45.790606,/muse/eeg,"[661.2087912087912, 0.0, 637.4358974358975, 698.6813186813187]"
2025-11-19T16:19:45.843961,/muse/eeg,"[709.5604395604396, 147.87545787545787, 740.989010989011, 714.7985347985348]"
2025-11-19T16:19:45.925935,/muse/eeg,"[624.5421245421246, 228.86446886446888, 665.2380952380953, 666.8498168498169]"
2025-11-19T16:19:45.993088,/muse/eeg,"[624.5421245421246, 228.86446886446888, 665.2380952380953, 666.8498168498169]"
2025-11-19T16:19:46.009216,/muse/eeg,"[624.5421245421246, 228.86446886446888, 665.2380952380953, 666.8498168498169]"
2025-11-19T16:19:46.029957,/muse/eeg,"[624.5421245421246, 228.86446886446888, 665.2380952380953, 666.8498168498169]"
2025-11-19T16:19:46.109568,/muse/eeg,"[624.5421245421246, 228.86446886446888, 665.2380952380953, 666.8498168498169]"
2025-11-19T16:19:46.145200,/muse/eeg,"[624.5421245421246, 228.86446886446888, 665.2380952380953, 666.8498168498169]"
2025-11-19T16:19:46.179133,/muse/eeg,"[624.5421245421246, 228.86446886446888, 665.2380952380953, 666.8498168498169]"
2025-11-19T16:19:46.210466,/muse/eeg,"[624.5421245421246, 228.86446886446888, 665.2380952380953, 666.8498168498169]"
2025-11-19T16:19:46.394572,/muse/eeg,"[624.5421245421246, 228.86446886446888, 665.2380952380953, 666.8498168498169]"
2025-11-19T16:19:46.542078,/muse/eeg,"[624.5421245421246, 228.86446886446888, 665.2380952380953, 666.8498168498169]"
2025-11-19T16:19:46.577620,/muse/eeg,"[624.5421245421246, 228.86446886446888, 665.2380952380953, 666.8498168498169]"
2025-11-19T16:19:46.557876,/muse/eeg,"[624.5421245421246, 228.86446886446888, 665.2380952380953, 666.8498168498169]"
2025-11-19T16:19:46.604870,/muse/eeg,"[647.5091575091575, 134.981684981685, 653.1501831501831, 678.1318681318681]"
2025-11-19T16:19:46.662082,/muse/eeg,"[737.3626373626374, 307.43589743589746, 597.948717948718, 724.8717948717949]"
2025-11-19T16:19:46.712307,/muse/eeg,"[737.3626373626374, 307.43589743589746, 597.948717948718, 724.8717948717949]"
2025-11-19T16:19:46.791708,/muse/eeg,"[737.3626373626374, 307.43589743589746, 597.948717948718, 724.8717948717949]"
2025-11-19T16:19:46.876181,/muse/eeg,"[737.3626373626374, 307.43589743589746, 597.948717948718, 724.8717948717949]"
2025-11-19T16:19:46.927827,/muse/eeg,"[737.3626373626374, 307.43589743589746, 597.948717948718, 724.8717948717949]"
2025-11-19T16:19:47.012886,/muse/eeg,"[737.3626373626374, 307.43589743589746, 597.948717948718, 724.8717948717949]"
2025-11-19T16:19:46.979279,/muse/eeg,"[737.3626373626374, 307.43589743589746, 597.948717948718, 724.8717948717949]"
2025-11-19T16:19:47.045944,/muse/eeg,"[737.3626373626374, 307.43589743589746, 597.948717948718, 724.8717948717949]"
2025-11-19T16:19:47.096131,/muse/eeg,"[737.3626373626374, 307.43589743589746, 597.948717948718, 724.8717948717949]"
2025-11-19T16:19:47.132210,/muse/eeg,"[737.3626373626374, 307.43589743589746, 597.948717948718, 724.8717948717949]"
2025-11-19T16:19:47.196817,/muse/eeg,"[737.3626373626374, 307.43589743589746, 597.948717948718, 724.8717948717949]"
2025-11-19T16:19:47.262205,/muse/eeg,"[631.3919413919414, 29.413919413919416, 567.7289377289377, 649.5238095238095]"
2025-11-19T16:19:47.295912,/muse/eeg,"[841.3186813186813, 439.1941391941392, 586.6666666666666, 793.7728937728938]"
2025-11-19T16:19:47.426904,/muse/eeg,"[841.3186813186813, 439.1941391941392, 586.6666666666666, 793.7728937728938]"
2025-11-19T16:19:47.493789,/muse/eeg,"[841.3186813186813, 439.1941391941392, 586.6666666666666, 793.7728937728938]"
2025-11-19T16:19:47.579272,/muse/eeg,"[841.3186813186813, 439.1941391941392, 586.6666666666666, 793.7728937728938]"
2025-11-19T16:19:47.659821,/muse/eeg,"[841.3186813186813, 439.1941391941392, 586.6666666666666, 793.7728937728938]"
2025-11-19T16:19:47.727917,/muse/eeg,"[841.3186813186813, 439.1941391941392, 586.6666666666666, 793.7728937728938]"
2025-11-19T16:19:47.779909,/muse/eeg,"[841.3186813186813, 439.1941391941392, 586.6666666666666, 793.7728937728938]"
2025-11-19T16:19:47.828983,/muse/eeg,"[841.3186813186813, 439.1941391941392, 586.6666666666666, 793.7728937728938]"
2025-11-19T16:19:47.879571,/muse/eeg,"[841.3186813186813, 439.1941391941392, 586.6666666666666, 793.7728937728938]"
2025-11-19T16:19:47.978027,/muse/eeg,"[694.2490842490843, 227.65567765567766, 558.0586080586081, 689.8168498168499]"
2025-11-19T16:19:48.059094,/muse/eeg,"[765.1648351648352, 0.0, 489.5604395604396, 745.4212454212454]"
2025-11-19T16:19:48.145914,/muse/eeg,"[809.4871794871796, 97.50915750915752, 535.8974358974359, 763.956043956044]"
2025-11-19T16:19:48.211382,/muse/eeg,"[809.4871794871796, 97.50915750915752, 535.8974358974359, 763.956043956044]"
2025-11-19T16:19:48.293935,/muse/eeg,"[809.4871794871796, 97.50915750915752, 535.8974358974359, 763.956043956044]"
2025-11-19T16:19:48.346591,/muse/eeg,"[809.4871794871796, 97.50915750915752, 535.8974358974359, 763.956043956044]"
2025-11-19T16:19:48.411592,/muse/eeg,"[809.4871794871796, 97.50915750915752, 535.8974358974359, 763.956043956044]"
2025-11-19T16:19:48.478475,/muse/eeg,"[809.4871794871796, 97.50915750915752, 535.8974358974359, 763.956043956044]"
2025-11-19T16:19:48.545083,/muse/eeg,"[809.4871794871796, 97.50915750915752, 535.8974358974359, 763.956043956044]"
2025-11-19T16:19:48.494227,/muse/eeg,"[809.4871794871796, 97.50915750915752, 535.8974358974359, 763.956043956044]"
2025-11-19T16:19:48.595974,/muse/eeg,"[809.4871794871796, 97.50915750915752, 535.8974358974359, 763.956043956044]"
2025-11-19T16:19:48.646305,/muse/eeg,"[809.4871794871796, 97.50915750915752, 535.8974358974359, 763.956043956044]"
2025-11-19T16:19:48.794991,/muse/eeg,"[636.2271062271062, 137.8021978021978, 492.3809523809524, 632.6007326007326]"
2025-11-19T16:19:48.744435,/muse/eeg,"[796.1904761904763, 352.5641025641026, 542.7472527472528, 756.3003663003664]"
2025-11-19T16:19:48.847020,/muse/eeg,"[636.2271062271062, 137.8021978021978, 492.3809523809524, 632.6007326007326]"
2025-11-19T16:19:48.863856,/muse/eeg,"[846.5567765567765, 205.0915750915751, 514.5421245421246, 787.3260073260074]"
2025-11-19T16:19:48.863856,/muse/eeg,"[749.4505494505495, 302.1978021978022, 502.8571428571429, 709.1575091575091]"
2025-11-19T16:19:48.863856,/muse/eeg,"[707.5457875457876, 106.77655677655677, 479.4871794871795, 684.5787545787546]"
2025-11-19T16:19:48.863856,/muse/eeg,"[707.5457875457876, 106.77655677655677, 479.4871794871795, 684.5787545787546]"
2025-11-19T16:19:48.863856,/muse/eeg,"[707.5457875457876, 106.77655677655677, 479.4871794871795, 684.5787545787546]"
2025-11-19T16:19:48.863856,/muse/eeg,"[707.5457875457876, 106.77655677655677, 479.4871794871795, 684.5787545787546]"
2025-11-19T16:19:48.863856,/muse/eeg,"[707.5457875457876, 106.77655677655677, 479.4871794871795, 684.5787545787546]"
2025-11-19T16:19:48.863856,/muse/eeg,"[707.5457875457876, 106.77655677655677, 479.4871794871795, 684.5787545787546]"
2025-11-19T16:19:48.863856,/muse/eeg,"[707.5457875457876, 106.77655677655677, 479.4871794871795, 684.5787545787546]"
2025-11-19T16:19:48.863856,/muse/eeg,"[849.7802197802198, 469.010989010989, 525.018315018315, 780.0732600732601]"
2025-11-19T16:19:48.873419,/muse/eeg,"[643.8827838827839, 174.8717948717949, 433.95604395604397, 643.4798534798535]"
2025-11-19T16:19:48.874671,/muse/eeg,"[820.7692307692308, 557.6556776556777, 515.3479853479854, 745.0183150183151]"
2025-11-19T16:19:48.874671,/muse/eeg,"[823.992673992674, 381.57509157509156, 453.6996336996337, 761.941391941392]"
2025-11-19T16:19:48.874671,/muse/eeg,"[636.6300366300367, 15.311355311355312, 440.0, 630.989010989011]"
2025-11-19T16:19:48.875803,/muse/eeg,"[859.047619047619, 483.91941391941396, 477.87545787545787, 776.0439560439561]"
2025-11-19T16:19:48.875803,/muse/eeg,"[621.3186813186813, 96.3003663003663, 460.1465201465202, 622.1245421245421]"
2025-11-19T16:19:48.875803,/muse/eeg,"[621.3186813186813, 96.3003663003663, 460.1465201465202, 622.1245421245421]"
2025-11-19T16:19:48.877762,/muse/eeg,"[621.3186813186813, 96.3003663003663, 460.1465201465202, 622.1245421245421]"
2025-11-19T16:19:48.877762,/muse/eeg,"[621.3186813186813, 96.3003663003663, 460.1465201465202, 622.1245421245421]"
2025-11-19T16:19:48.878620,/muse/eeg,"[621.3186813186813, 96.3003663003663, 460.1465201465202, 622.1245421245421]"
2025-11-19T16:19:48.878620,/muse/eeg,"[621.3186813186813, 96.3003663003663, 460.1465201465202, 622.1245421245421]"
2025-11-19T16:19:48.879713,/muse/eeg,"[765.9706959706959, 235.71428571428572, 415.42124542124543, 717.6190476190476]"
2025-11-19T16:19:48.879713,/muse/eeg,"[712.7838827838829, 257.4725274725275, 446.8498168498169, 679.7435897435897]"
2025-11-19T16:19:48.879713,/muse/eeg,"[801.8315018315019, 51.97802197802198, 347.72893772893775, 776.4468864468864]"
2025-11-19T16:19:48.880717,/muse/eeg,"[668.8644688644689, 145.45787545787547, 380.3663003663004, 684.1758241758242]"
2025-11-19T16:19:48.880717,/muse/eeg,"[668.8644688644689, 145.45787545787547, 380.3663003663004, 684.1758241758242]"
2025-11-19T16:19:48.880717,/muse/eeg,"[668.8644688644689, 145.45787545787547, 380.3663003663004, 684.1758241758242]"
2025-11-19T16:19:48.881732,/muse/eeg,"[668.8644688644689, 145.45787545787547, 380.3663003663004, 684.1758241758242]"
2025-11-19T16:19:48.881732,/muse/eeg,"[668.8644688644689, 145.45787545787547, 380.3663003663004, 684.1758241758242]"
2025-11-19T16:19:48.881732,/muse/eeg,"[668.8644688644689, 145.45787545787547, 380.3663003663004, 684.1758241758242]"
2025-11-19T16:19:48.882806,/muse/eeg,"[668.8644688644689, 145.45787545787547, 380.3663003663004, 684.1758241758242]"
2025-11-19T16:19:48.882806,/muse/eeg,"[668.8644688644689, 145.45787545787547, 380.3663003663004, 684.1758241758242]"
2025-11-19T16:19:48.882806,/muse/eeg,"[668.8644688644689, 145.45787545787547, 380.3663003663004, 684.1758241758242]"
2025-11-19T16:19:48.883975,/muse/eeg,"[610.4395604395604, 0.0, 350.1465201465202, 647.5091575091575]"
2025-11-19T16:19:48.883975,/muse/eeg,"[706.3369963369963, 100.73260073260073, 309.8534798534799, 625.3479853479854]"
2025-11-19T16:19:48.883975,/muse/eeg,"[610.8424908424909, 97.10622710622711, 284.87179487179486, 628.974358974359]"
2025-11-19T16:19:48.884979,/muse/eeg,"[814.3223443223443, 408.974358974359, 330.0, 755.8974358974359]"
2025-11-19T16:19:48.884979,/muse/eeg,"[814.3223443223443, 408.974358974359, 330.0, 755.8974358974359]"
2025-11-19T16:19:48.886054,/muse/eeg,"[814.3223443223443, 408.974358974359, 330.0, 755.8974358974359]"
2025-11-19T16:19:48.886054,/muse/eeg,"[814.3223443223443, 408.974358974359, 330.0, 755.8974358974359]"
2025-11-19T16:19:48.886054,/muse/eeg,"[814.3223443223443, 408.974358974359, 330.0, 755.8974358974359]"
2025-11-19T16:19:48.887108,/muse/eeg,"[814.3223443223443, 408.974358974359, 330.0, 755.8974358974359]"
2025-11-19T16:19:48.887108,/muse/eeg,"[814.3223443223443, 408.974358974359, 330.0, 755.8974358974359]"
2025-11-19T16:19:48.887108,/muse/eeg,"[814.3223443223443, 408.974358974359, 330.0, 755.8974358974359]"
2025-11-19T16:19:48.888163,/muse/eeg,"[814.3223443223443, 408.974358974359, 330.0, 755.8974358974359]"
2025-11-19T16:19:48.888163,/muse/eeg,"[646.7032967032967, 199.04761904761907, 255.45787545787547, 654.7619047619048]"
2025-11-19T16:19:48.889181,/muse/eeg,"[624.945054945055, 2.417582417582418, 152.30769230769232, 655.1648351648352]"
2025-11-19T16:19:48.889181,/muse/eeg,"[847.7655677655678, 356.5934065934066, 304.21245421245425, 795.3846153846154]"
2025-11-19T16:19:48.889181,/muse/eeg,"[763.1501831501831, 89.04761904761905, 272.7838827838828, 728.901098901099]"
2025-11-19T16:19:48.890194,/muse/eeg,"[763.1501831501831, 89.04761904761905, 272.7838827838828, 728.901098901099]"
2025-11-19T16:19:48.890194,/muse/eeg,"[763.1501831501831, 89.04761904761905, 272.7838827838828, 728.901098901099]"
2025-11-19T16:19:48.890194,/muse/eeg,"[763.1501831501831, 89.04761904761905, 272.7838827838828, 728.901098901099]"
2025-11-19T16:19:48.890194,/muse/eeg,"[860.2564102564103, 363.84615384615387, 262.3076923076923, 786.9230769230769]"
2025-11-19T16:19:48.891401,/muse/eeg,"[860.2564102564103, 363.84615384615387, 262.3076923076923, 786.9230769230769]"
2025-11-19T16:19:48.891401,/muse/eeg,"[860.2564102564103, 363.84615384615387, 262.3076923076923, 786.9230769230769]"
2025-11-19T16:19:48.891401,/muse/eeg,"[860.2564102564103, 363.84615384615387, 262.3076923076923, 786.9230769230769]"
2025-11-19T16:19:48.892541,/muse/eeg,"[860.2564102564103, 363.84615384615387, 262.3076923076923, 786.9230769230769]"
2025-11-19T16:19:48.892541,/muse/eeg,"[628.5714285714286, 38.681318681318686, 211.94139194139194, 636.6300366300367]"
2025-11-19T16:19:48.892541,/muse/eeg,"[813.919413919414, 168.82783882783883, 197.83882783882785, 777.6556776556777]"
2025-11-19T16:19:48.893576,/muse/eeg,"[786.1172161172161, 33.443223443223445, 212.74725274725276, 749.047619047619]"
2025-11-19T16:19:48.893576,/muse/eeg,"[600.7692307692308, 41.904761904761905, 197.43589743589743, 628.974358974359]"
2025-11-19T16:19:48.893576,/muse/eeg,"[748.2417582417582, 176.4835164835165, 201.46520146520146, 714.3956043956044]"
2025-11-19T16:19:48.894725,/muse/eeg,"[748.2417582417582, 176.4835164835165, 201.46520146520146, 714.3956043956044]"
2025-11-19T16:19:48.894725,/muse/eeg,"[748.2417582417582, 176.4835164835165, 201.46520146520146, 714.3956043956044]"
2025-11-19T16:19:48.895418,/muse/eeg,"[748.2417582417582, 176.4835164835165, 201.46520146520146, 714.3956043956044]"
2025-11-19T16:19:48.895418,/muse/eeg,"[748.2417582417582, 176.4835164835165, 201.46520146520146, 714.3956043956044]"
2025-11-19T16:19:48.895418,/muse/eeg,"[748.2417582417582, 176.4835164835165, 201.46520146520146, 714.3956043956044]"
2025-11-19T16:19:48.895418,/muse/eeg,"[748.2417582417582, 176.4835164835165, 201.46520146520146, 714.3956043956044]"
2025-11-19T16:19:48.895418,/muse/eeg,"[748.2417582417582, 176.4835164835165, 201.46520146520146, 714.3956043956044]"
2025-11-19T16:19:48.895418,/muse/eeg,"[863.0769230769231, 284.0659340659341, 190.989010989011, 796.996336996337]"
2025-11-19T16:19:48.895418,/muse/eeg,"[617.6923076923077, 135.3846153846154, 87.03296703296704, 630.989010989011]"
2025-11-19T16:19:48.895418,/muse/eeg,"[801.8315018315019, 0.0, 69.70695970695971, 767.985347985348]"
2025-11-19T16:19:48.895418,/muse/eeg,"[801.8315018315019, 0.0, 69.70695970695971, 767.985347985348]"
2025-11-19T16:19:48.895418,/muse/eeg,"[801.8315018315019, 0.0, 69.70695970695971, 767.985347985348]"
2025-11-19T16:19:48.895418,/muse/eeg,"[801.8315018315019, 0.0, 69.70695970695971, 767.985347985348]"
2025-11-19T16:19:48.895418,/muse/eeg,"[626.959706959707, 148.2783882783883, 84.21245421245422, 628.974358974359]"
2025-11-19T16:19:48.895418,/muse/eeg,"[626.959706959707, 148.2783882783883, 84.21245421245422, 628.974358974359]"
2025-11-19T16:19:48.900780,/muse/eeg,"[626.959706959707, 148.2783882783883, 84.21245421245422, 628.974358974359]"
2025-11-19T16:19:48.900780,/muse/eeg,"[626.959706959707, 148.2783882783883, 84.21245421245422, 628.974358974359]"
2025-11-19T16:19:48.900780,/muse/eeg,"[626.959706959707, 148.2783882783883, 84.21245421245422, 628.974358974359]"
2025-11-19T16:19:48.901795,/muse/eeg,"[626.959706959707, 148.2783882783883, 84.21245421245422, 628.974358974359]"
2025-11-19T16:19:48.901795,/muse/eeg,"[676.5201465201466, 51.57509157509158, 149.4871794871795, 679.3406593406594]"
2025-11-19T16:19:48.902647,/muse/eeg,"[640.6593406593407, 137.8021978021978, 131.35531135531136, 662.014652014652]"
2025-11-19T16:19:48.902647,/muse/eeg,"[640.6593406593407, 137.8021978021978, 131.35531135531136, 662.014652014652]"
2025-11-19T16:19:48.903186,/muse/eeg,"[640.6593406593407, 137.8021978021978, 131.35531135531136, 662.014652014652]"
2025-11-19T16:19:48.903186,/muse/eeg,"[640.6593406593407, 137.8021978021978, 131.35531135531136, 662.014652014652]"
2025-11-19T16:19:48.903186,/muse/eeg,"[640.6593406593407, 137.8021978021978, 131.35531135531136, 662.014652014652]"
2025-11-19T16:19:48.904354,/muse/eeg,"[640.6593406593407, 137.8021978021978, 131.35531135531136, 662.014652014652]"
2025-11-19T16:19:48.904354,/muse/eeg,"[640.6593406593407, 137.8021978021978, 131.35531135531136, 662.014652014652]"
2025-11-19T16:19:48.904354,/muse/eeg,"[640.6593406593407, 137.8021978021978, 131.35531135531136, 662.014652014652]"
2025-11-19T16:19:48.905394,/muse/eeg,"[640.6593406593407, 137.8021978021978, 131.35531135531136, 662.014652014652]"
2025-11-19T16:19:48.905394,/muse/eeg,"[640.6593406593407, 137.8021978021978, 131.35531135531136, 662.014652014652]"
2025-11-19T16:19:48.906434,/muse/eeg,"[640.6593406593407, 137.8021978021978, 131.35531135531136, 662.014652014652]"
2025-11-19T16:19:48.906434,/muse/eeg,"[651.941391941392, 0.0, 170.84249084249086, 651.5384615384615]"
2025-11-19T16:19:48.906434,/muse/eeg,"[636.6300366300367, 0.0, 208.31501831501834, 646.3003663003664]"
2025-11-19T16:19:48.908209,/muse/eeg,"[868.3150183150184, 147.87545787545787, 245.3846153846154, 805.054945054945]"
2025-11-19T16:19:48.908586,/muse/eeg,"[620.1098901098901, 4.029304029304029, 259.4871794871795, 652.3443223443223]"
2025-11-19T16:19:48.908586,/muse/eeg,"[845.7509157509157, 359.4139194139194, 319.1208791208791, 797.3992673992674]"
2025-11-19T16:19:48.909586,/muse/eeg,"[845.7509157509157, 359.4139194139194, 319.1208791208791, 797.3992673992674]"
2025-11-19T16:19:48.909586,/muse/eeg,"[845.7509157509157, 359.4139194139194, 319.1208791208791, 797.3992673992674]"
2025-11-19T16:19:48.909586,/muse/eeg,"[845.7509157509157, 359.4139194139194, 319.1208791208791, 797.3992673992674]"
2025-11-19T16:19:48.910592,/muse/eeg,"[845.7509157509157, 359.4139194139194, 319.1208791208791, 797.3992673992674]"
2025-11-19T16:19:48.910592,/muse/eeg,"[845.7509157509157, 359.4139194139194, 319.1208791208791, 797.3992673992674]"
2025-11-19T16:19:48.910592,/muse/eeg,"[845.7509157509157, 359.4139194139194, 319.1208791208791, 797.3992673992674]"
2025-11-19T16:19:48.911605,/muse/eeg,"[765.1648351648352, 280.43956043956047, 289.7069597069597, 753.0769230769231]"
2025-11-19T16:19:48.912310,/muse/eeg,"[623.3333333333334, 162.7838827838828, 280.43956043956047, 652.3443223443223]"
2025-11-19T16:19:48.912310,/muse/eeg,"[836.886446886447, 97.50915750915752, 305.01831501831504, 784.9084249084249]"
2025-11-19T16:19:48.912310,/muse/eeg,"[661.6117216117216, 317.91208791208794, 330.0, 653.5531135531136]"
2025-11-19T16:19:48.912310,/muse/eeg,"[796.996336996337, 0.0, 309.4505494505495, 756.3003663003664]"
2025-11-19T16:19:48.912310,/muse/eeg,"[705.1282051282052, 160.36630036630038, 374.72527472527474, 690.2197802197802]"
2025-11-19T16:19:48.912310,/muse/eeg,"[763.956043956044, 21.75824175824176, 356.5934065934066, 737.7655677655678]"
2025-11-19T16:19:48.912310,/muse/eeg,"[857.4358974358975, 165.2014652014652, 412.1978021978022, 801.8315018315019]"
2025-11-19T16:19:48.912310,/muse/eeg,"[857.4358974358975, 165.2014652014652, 412.1978021978022, 801.8315018315019]"
2025-11-19T16:19:48.912310,/muse/eeg,"[857.4358974358975, 165.2014652014652, 412.1978021978022, 801.8315018315019]"
2025-11-19T16:19:48.912310,/muse/eeg,"[857.4358974358975, 165.2014652014652, 412.1978021978022, 801.8315018315019]"
2025-11-19T16:19:48.912310,/muse/eeg,"[857.4358974358975, 165.2014652014652, 412.1978021978022, 801.8315018315019]"
2025-11-19T16:19:48.912310,/muse/eeg,"[857.4358974358975, 165.2014652014652, 412.1978021978022, 801.8315018315019]"
2025-11-19T16:19:48.912310,/muse/eeg,"[755.4945054945055, 282.05128205128204, 428.71794871794873, 720.4395604395604]"
2025-11-19T16:19:48.912310,/muse/eeg,"[628.1684981684982, 58.02197802197802, 410.1831501831502, 650.3296703296703]"
2025-11-19T16:19:48.912310,/muse/eeg,"[840.9157509157509, 511.31868131868134, 512.9304029304029, 791.7582417582418]"
2025-11-19T16:19:48.912310,/muse/eeg,"[782.893772893773, 173.26007326007326, 526.6300366300367, 745.8241758241759]"
2025-11-19T16:19:48.919847,/muse/eeg,"[782.893772893773, 173.26007326007326, 526.6300366300367, 745.8241758241759]"
2025-11-19T16:19:48.919847,/muse/eeg,"[782.893772893773, 173.26007326007326, 526.6300366300367, 745.8241758241759]"
2025-11-19T16:19:48.919847,/muse/eeg,"[782.893772893773, 173.26007326007326, 526.6300366300367, 745.8241758241759]"
2025-11-19T16:19:48.920862,/muse/eeg,"[782.893772893773, 173.26007326007326, 526.6300366300367, 745.8241758241759]"
2025-11-19T16:19:48.920862,/muse/eeg,"[782.893772893773, 173.26007326007326, 526.6300366300367, 745.8241758241759]"
2025-11-19T16:19:48.920862,/muse/eeg,"[782.893772893773, 173.26007326007326, 526.6300366300367, 745.8241758241759]"
2025-11-19T16:19:48.921878,/muse/eeg,"[782.893772893773, 173.26007326007326, 526.6300366300367, 745.8241758241759]"
2025-11-19T16:19:48.921878,/muse/eeg,"[782.893772893773, 173.26007326007326, 526.6300366300367, 745.8241758241759]"
2025-11-19T16:19:48.922439,/muse/eeg,"[864.6886446886447, 464.1758241758242, 554.8351648351648, 786.1172161172161]"
2025-11-19T16:19:48.922974,/muse/eeg,"[660.0, 31.025641025641026, 572.967032967033, 649.5238095238095]"
2025-11-19T16:19:48.922974,/muse/eeg,"[660.0, 31.025641025641026, 572.967032967033, 649.5238095238095]"
2025-11-19T16:19:48.922974,/muse/eeg,"[660.0, 31.025641025641026, 572.967032967033, 649.5238095238095]"
2025-11-19T16:19:48.923983,/muse/eeg,"[660.0, 31.025641025641026, 572.967032967033, 649.5238095238095]"
2025-11-19T16:19:48.923983,/muse/eeg,"[660.0, 31.025641025641026, 572.967032967033, 649.5238095238095]"
2025-11-19T16:19:48.923983,/muse/eeg,"[660.0, 31.025641025641026, 572.967032967033, 649.5238095238095]"
2025-11-19T16:19:48.924992,/muse/eeg,"[660.0, 31.025641025641026, 572.967032967033, 649.5238095238095]"
2025-11-19T16:19:48.924992,/muse/eeg,"[660.0, 31.025641025641026, 572.967032967033, 649.5238095238095]"
2025-11-19T16:19:48.924992,/muse/eeg,"[660.0, 31.025641025641026, 572.967032967033, 649.5238095238095]"
2025-11-19T16:19:48.924992,/muse/eeg,"[660.0, 31.025641025641026, 572.967032967033, 649.5238095238095]"
2025-11-19T16:19:48.924992,/muse/eeg,"[821.978021978022, 188.57142857142858, 570.1465201465202, 760.7326007326008]"
2025-11-19T16:19:48.924992,/muse/eeg,"[660.0, 31.025641025641026, 572.967032967033, 649.5238095238095]"
2025-11-19T16:19:48.924992,/muse/eeg,"[869.92673992674, 114.43223443223444, 522.6007326007326, 808.6813186813187]"
2025-11-19T16:19:48.924992,/muse/eeg,"[744.6153846153846, 186.55677655677655, 570.5494505494505, 713.1868131868132]"
2025-11-19T16:19:48.928429,/muse/eeg,"[634.6153846153846, 60.84249084249085, 558.4615384615385, 644.6886446886447]"
2025-11-19T16:19:48.929318,/muse/eeg,"[634.6153846153846, 60.84249084249085, 558.4615384615385, 644.6886446886447]"
2025-11-19T16:19:48.929318,/muse/eeg,"[634.6153846153846, 60.84249084249085, 558.4615384615385, 644.6886446886447]"
2025-11-19T16:19:48.929318,/muse/eeg,"[634.6153846153846, 60.84249084249085, 558.4615384615385, 644.6886446886447]"
2025-11-19T16:19:48.929318,/muse/eeg,"[634.6153846153846, 60.84249084249085, 558.4615384615385, 644.6886446886447]"
2025-11-19T16:19:48.929318,/muse/eeg,"[634.6153846153846, 60.84249084249085, 558.4615384615385, 644.6886446886447]"
2025-11-19T16:19:48.929318,/muse/eeg,"[634.6153846153846, 60.84249084249085, 558.4615384615385, 644.6886446886447]"
2025-11-19T16:19:48.929318,/muse/eeg,"[634.6153846153846, 60.84249084249085, 558.4615384615385, 644.6886446886447]"
2025-11-19T16:19:48.929318,/muse/eeg,"[634.6153846153846, 60.84249084249085, 558.4615384615385, 644.6886446886447]"
2025-11-19T16:19:48.929318,/muse/eeg,"[700.2930402930403, 0.0, 567.7289377289377, 679.7435897435897]"
2025-11-19T16:19:48.929318,/muse/eeg,"[830.8424908424909, 359.010989010989, 616.4835164835165, 769.5970695970697]"
2025-11-19T16:19:48.929318,/muse/eeg,"[830.8424908424909, 359.010989010989, 616.4835164835165, 769.5970695970697]"
2025-11-19T16:19:48.929318,/muse/eeg,"[751.4652014652015, 377.54578754578756, 519.3772893772893, 728.901098901099]"
2025-11-19T16:19:48.929318,/muse/eeg,"[751.4652014652015, 377.54578754578756, 519.3772893772893, 728.901098901099]"
2025-11-19T16:19:48.934521,/muse/eeg,"[751.4652014652015, 377.54578754578756, 519.3772893772893, 728.901098901099]"
2025-11-19T16:19:48.934521,/muse/eeg,"[751.4652014652015, 377.54578754578756, 519.3772893772893, 728.901098901099]"
2025-11-19T16:19:48.934521,/muse/eeg,"[751.4652014652015, 377.54578754578756, 519.3772893772893, 728.901098901099]"
2025-11-19T16:19:48.935537,/muse/eeg,"[751.4652014652015, 377.54578754578756, 519.3772893772893, 728.901098901099]"
2025-11-19T16:19:48.935537,/muse/eeg,"[751.4652014652015, 377.54578754578756, 519.3772893772893, 728.901098901099]"
2025-11-19T16:19:48.935537,/muse/eeg,"[751.4652014652015, 377.54578754578756, 519.3772893772893, 728.901098901099]"
2025-11-19T16:19:48.936586,/muse/eeg,"[751.4652014652015, 377.54578754578756, 519.3772893772893, 728.901098901099]"
2025-11-19T16:19:48.936586,/muse/eeg,"[625.3479853479854, 68.9010989010989, 500.0366300366301, 644.6886446886447]"
2025-11-19T16:19:48.936586,/muse/eeg,"[647.5091575091575, 110.0, 467.80219780219784, 668.8644688644689]"
2025-11-19T16:19:48.937568,/muse/eeg,"[676.9230769230769, 86.63003663003663, 447.65567765567766, 699.8901098901099]"
2025-11-19T16:19:48.938179,/muse/eeg,"[863.4798534798535, 423.0769230769231, 553.2234432234433, 798.2051282051282]"
2025-11-19T16:19:48.938179,/muse/eeg,"[863.4798534798535, 423.0769230769231, 553.2234432234433, 798.2051282051282]"
2025-11-19T16:19:48.938179,/muse/eeg,"[863.4798534798535, 423.0769230769231, 553.2234432234433, 798.2051282051282]"
2025-11-19T16:19:48.939190,/muse/eeg,"[863.4798534798535, 423.0769230769231, 553.2234432234433, 798.2051282051282]"
2025-11-19T16:19:48.939190,/muse/eeg,"[863.4798534798535, 423.0769230769231, 553.2234432234433, 798.2051282051282]"
2025-11-19T16:19:48.939190,/muse/eeg,"[863.4798534798535, 423.0769230769231, 553.2234432234433, 798.2051282051282]"
2025-11-19T16:19:48.939190,/muse/eeg,"[863.4798534798535, 423.0769230769231, 553.2234432234433, 798.2051282051282]"
2025-11-19T16:19:48.940266,/muse/eeg,"[863.4798534798535, 423.0769230769231, 553.2234432234433, 798.2051282051282]"
2025-11-19T16:19:48.940266,/muse/eeg,"[863.4798534798535, 423.0769230769231, 553.2234432234433, 798.2051282051282]"
2025-11-19T16:19:48.940266,/muse/eeg,"[637.4358974358975, 140.21978021978023, 529.8534798534798, 699.4871794871796]"
2025-11-19T16:19:48.940266,/muse/eeg,"[752.6739926739926, 304.61538461538464, 518.974358974359, 740.1831501831502]"
2025-11-19T16:19:48.940266,/muse/eeg,"[752.6739926739926, 304.61538461538464, 518.974358974359, 740.1831501831502]"
2025-11-19T16:19:48.940266,/muse/eeg,"[752.6739926739926, 304.61538461538464, 518.974358974359, 740.1831501831502]"
2025-11-19T16:19:48.940266,/muse/eeg,"[752.6739926739926, 304.61538461538464, 518.974358974359, 740.1831501831502]"
2025-11-19T16:19:48.940266,/muse/eeg,"[825.6043956043957, 110.8058608058608, 567.7289377289377, 769.5970695970697]"
2025-11-19T16:19:48.940266,/muse/eeg,"[825.6043956043957, 110.8058608058608, 567.7289377289377, 769.5970695970697]"
2025-11-19T16:19:48.943866,/muse/eeg,"[825.6043956043957, 110.8058608058608, 567.7289377289377, 769.5970695970697]"
2025-11-19T16:19:48.943866,/muse/eeg,"[825.6043956043957, 110.8058608058608, 567.7289377289377, 769.5970695970697]"
2025-11-19T16:19:48.943866,/muse/eeg,"[825.6043956043957, 110.8058608058608, 567.7289377289377, 769.5970695970697]"
2025-11-19T16:19:48.943866,/muse/eeg,"[825.6043956043957, 110.8058608058608, 567.7289377289377, 769.5970695970697]"
2025-11-19T16:19:48.944864,/muse/eeg,"[825.6043956043957, 110.8058608058608, 567.7289377289377, 769.5970695970697]"
2025-11-19T16:19:48.944864,/muse/eeg,"[837.6923076923077, 392.45421245421244, 593.5164835164835, 788.9377289377289]"
2025-11-19T16:19:48.945555,/muse/eeg,"[695.054945054945, 64.06593406593407, 601.5750915750916, 687.3992673992674]"
2025-11-19T16:19:48.945555,/muse/eeg,"[695.054945054945, 64.06593406593407, 601.5750915750916, 687.3992673992674]"
2025-11-19T16:19:48.945555,/muse/eeg,"[695.054945054945, 64.06593406593407, 601.5750915750916, 687.3992673992674]"
2025-11-19T16:19:48.945555,/muse/eeg,"[695.054945054945, 64.06593406593407, 601.5750915750916, 687.3992673992674]"
2025-11-19T16:19:48.945555,/muse/eeg,"[695.054945054945, 64.06593406593407, 601.5750915750916, 687.3992673992674]"
2025-11-19T16:19:48.945555,/muse/eeg,"[695.054945054945, 64.06593406593407, 601.5750915750916, 687.3992673992674]"
2025-11-19T16:19:48.945555,/muse/eeg,"[695.054945054945, 64.06593406593407, 601.5750915750916, 687.3992673992674]"
2025-11-19T16:19:48.945555,/muse/eeg,"[695.054945054945, 64.06593406593407, 601.5750915750916, 687.3992673992674]"
2025-11-19T16:19:48.945555,/muse/eeg,"[695.054945054945, 64.06593406593407, 601.5750915750916, 687.3992673992674]"
2025-11-19T16:19:48.945555,/muse/eeg,"[695.054945054945, 64.06593406593407, 601.5750915750916, 687.3992673992674]"
2025-11-19T16:19:48.945555,/muse/eeg,"[695.054945054945, 64.06593406593407, 601.5750915750916, 687.3992673992674]"
2025-11-19T16:19:48.945555,/muse/eeg,"[868.7179487179487, 502.05128205128204, 674.1025641025641, 786.9230769230769]"
2025-11-19T16:19:48.945555,/muse/eeg,"[666.8498168498169, 110.40293040293041, 599.1575091575091, 673.2967032967033]"
2025-11-19T16:19:48.950685,/muse/eeg,"[710.3663003663004, 125.31135531135531, 597.1428571428571, 711.978021978022]"
2025-11-19T16:19:48.950685,/muse/eeg,"[710.3663003663004, 125.31135531135531, 597.1428571428571, 711.978021978022]"
2025-11-19T16:19:48.950685,/muse/eeg,"[710.3663003663004, 125.31135531135531, 597.1428571428571, 711.978021978022]"
2025-11-19T16:19:48.951696,/muse/eeg,"[710.3663003663004, 125.31135531135531, 597.1428571428571, 711.978021978022]"
2025-11-19T16:19:48.951696,/muse/eeg,"[710.3663003663004, 125.31135531135531, 597.1428571428571, 711.978021978022]"
2025-11-19T16:19:48.951696,/muse/eeg,"[628.5714285714286, 0.0, 690.2197802197802, 655.5677655677656]"
2025-11-19T16:19:48.952499,/muse/eeg,"[628.5714285714286, 0.0, 690.2197802197802, 655.5677655677656]"
2025-11-19T16:19:48.953223,/muse/eeg,"[628.5714285714286, 0.0, 690.2197802197802, 655.5677655677656]"
2025-11-19T16:19:48.953223,/muse/eeg,"[628.5714285714286, 0.0, 690.2197802197802, 655.5677655677656]"
2025-11-19T16:19:48.953223,/muse/eeg,"[628.5714285714286, 0.0, 690.2197802197802, 655.5677655677656]"
2025-11-19T16:19:48.954240,/muse/eeg,"[734.5421245421246, 165.60439560439562, 745.0183150183151, 708.7545787545788]"
2025-11-19T16:19:48.954240,/muse/eeg,"[872.3443223443223, 271.978021978022, 735.3479853479854, 802.6373626373627]"
2025-11-19T16:19:48.954240,/muse/eeg,"[686.1904761904763, 125.71428571428572, 719.2307692307693, 660.8058608058608]"
2025-11-19T16:19:48.955331,/muse/eeg,"[826.8131868131868, 72.52747252747253, 668.0586080586081, 792.967032967033]"
2025-11-19T16:19:48.955331,/muse/eeg,"[801.4285714285714, 198.24175824175825, 753.0769230769231, 755.0915750915751]"
2025-11-19T16:19:48.955331,/muse/eeg,"[721.2454212454213, 378.35164835164835, 733.3333333333334, 705.934065934066]"
2025-11-19T16:19:48.955331,/muse/eeg,"[721.2454212454213, 378.35164835164835, 733.3333333333334, 705.934065934066]"
2025-11-19T16:19:48.956501,/muse/eeg,"[721.2454212454213, 378.35164835164835, 733.3333333333334, 705.934065934066]"
2025-11-19T16:19:48.956501,/muse/eeg,"[721.2454212454213, 378.35164835164835, 733.3333333333334, 705.934065934066]"
2025-11-19T16:19:48.956501,/muse/eeg,"[721.2454212454213, 378.35164835164835, 733.3333333333334, 705.934065934066]"
2025-11-19T16:19:48.956501,/muse/eeg,"[721.2454212454213, 378.35164835164835, 733.3333333333334, 705.934065934066]"
2025-11-19T16:19:48.958209,/muse/eeg,"[721.2454212454213, 378.35164835164835, 733.3333333333334, 705.934065934066]"
2025-11-19T16:19:48.958539,/muse/eeg,"[643.0769230769231, 166.81318681318683, 692.2344322344322, 657.985347985348]"
2025-11-19T16:19:48.958539,/muse/eeg,"[643.0769230769231, 166.81318681318683, 692.2344322344322, 657.985347985348]"
2025-11-19T16:19:48.958539,/muse/eeg,"[643.0769230769231, 166.81318681318683, 692.2344322344322, 657.985347985348]"
2025-11-19T16:19:48.959539,/muse/eeg,"[643.0769230769231, 166.81318681318683, 692.2344322344322, 657.985347985348]"
2025-11-19T16:19:48.959539,/muse/eeg,"[643.0769230769231, 166.81318681318683, 692.2344322344322, 657.985347985348]"
2025-11-19T16:19:48.960543,/muse/eeg,"[840.5128205128206, 384.79853479853483, 809.0842490842491, 790.1465201465202]"
2025-11-19T16:19:48.960543,/muse/eeg,"[840.5128205128206, 384.79853479853483, 809.0842490842491, 790.1465201465202]"
2025-11-19T16:19:48.960543,/muse/eeg,"[840.5128205128206, 384.79853479853483, 809.0842490842491, 790.1465201465202]"
2025-11-19T16:19:48.960543,/muse/eeg,"[840.5128205128206, 384.79853479853483, 809.0842490842491, 790.1465201465202]"
2025-11-19T16:19:48.961739,/muse/eeg,"[840.5128205128206, 384.79853479853483, 809.0842490842491, 790.1465201465202]"
2025-11-19T16:19:48.961739,/muse/eeg,"[840.5128205128206, 384.79853479853483, 809.0842490842491, 790.1465201465202]"
2025-11-19T16:19:48.961739,/muse/eeg,"[840.5128205128206, 384.79853479853483, 809.0842490842491, 790.1465201465202]"
2025-11-19T16:19:48.962737,/muse/eeg,"[783.6996336996338, 473.0402930402931, 784.5054945054945, 794.981684981685]"
2025-11-19T16:19:48.962737,/muse/eeg,"[869.1208791208792, 267.14285714285717, 773.6263736263736, 785.3113553113553]"
2025-11-19T16:19:48.963734,/muse/eeg,"[869.1208791208792, 267.14285714285717, 773.6263736263736, 785.3113553113553]"
2025-11-19T16:19:48.963734,/muse/eeg,"[869.1208791208792, 267.14285714285717, 773.6263736263736, 785.3113553113553]"
2025-11-19T16:19:48.964084,/muse/eeg,"[869.1208791208792, 267.14285714285717, 773.6263736263736, 785.3113553113553]"
2025-11-19T16:19:48.964716,/muse/eeg,"[869.1208791208792, 267.14285714285717, 773.6263736263736, 785.3113553113553]"
2025-11-19T16:19:48.964716,/muse/eeg,"[869.1208791208792, 267.14285714285717, 773.6263736263736, 785.3113553113553]"
2025-11-19T16:19:48.965706,/muse/eeg,"[869.1208791208792, 267.14285714285717, 773.6263736263736, 785.3113553113553]"
2025-11-19T16:19:48.966036,/muse/eeg,"[869.1208791208792, 267.14285714285717, 773.6263736263736, 785.3113553113553]"
2025-11-19T16:19:48.966036,/muse/eeg,"[869.1208791208792, 267.14285714285717, 773.6263736263736, 785.3113553113553]"
2025-11-19T16:19:48.966036,/muse/eeg,"[869.1208791208792, 267.14285714285717, 773.6263736263736, 785.3113553113553]"
2025-11-19T16:19:48.966036,/muse/eeg,"[869.1208791208792, 267.14285714285717, 773.6263736263736, 785.3113553113553]"
2025-11-19T16:19:48.967044,/muse/eeg,"[840.1098901098901, 315.8974358974359, 740.989010989011, 773.6263736263736]"
2025-11-19T16:19:48.967526,/muse/eeg,"[702.3076923076924, 27.3992673992674, 678.1318681318681, 697.0695970695971]"
2025-11-19T16:19:48.967526,/muse/eeg,"[865.4945054945056, 10.87912087912088, 647.1062271062272, 801.025641025641]"
2025-11-19T16:19:48.968010,/muse/eeg,"[634.6153846153846, 93.88278388278388, 716.007326007326, 643.0769230769231]"
2025-11-19T16:19:48.968010,/muse/eeg,"[634.6153846153846, 93.88278388278388, 716.007326007326, 643.0769230769231]"
2025-11-19T16:19:48.969021,/muse/eeg,"[634.6153846153846, 93.88278388278388, 716.007326007326, 643.0769230769231]"
2025-11-19T16:19:48.969021,/muse/eeg,"[634.6153846153846, 93.88278388278388, 716.007326007326, 643.0769230769231]"
2025-11-19T16:19:48.969021,/muse/eeg,"[634.6153846153846, 93.88278388278388, 716.007326007326, 643.0769230769231]"
2025-11-19T16:19:48.970136,/muse/eeg,"[751.4652014652015, 156.73992673992674, 714.3956043956044, 711.978021978022]"
2025-11-19T16:19:48.970136,/muse/eeg,"[751.4652014652015, 156.73992673992674, 714.3956043956044, 711.978021978022]"
2025-11-19T16:19:48.970136,/muse/eeg,"[751.4652014652015, 156.73992673992674, 714.3956043956044, 711.978021978022]"
2025-11-19T16:19:48.970136,/muse/eeg,"[751.4652014652015, 156.73992673992674, 714.3956043956044, 711.978021978022]"
2025-11-19T16:19:48.970136,/muse/eeg,"[875.1648351648352, 292.5274725274725, 716.4102564102565, 796.1904761904763]"
2025-11-19T16:19:48.970136,/muse/eeg,"[645.4945054945055, 333.62637362637366, 643.4798534798535, 652.7472527472528]"
2025-11-19T16:19:48.970136,/muse/eeg,"[830.8424908424909, 260.6959706959707, 653.1501831501831, 788.9377289377289]"
2025-11-19T16:19:48.970136,/muse/eeg,"[696.2637362637363, 208.31501831501834, 653.1501831501831, 687.8021978021978]"
2025-11-19T16:19:48.970136,/muse/eeg,"[660.4029304029305, 40.6959706959707, 672.893772893773, 674.9084249084249]"
2025-11-19T16:19:48.970136,/muse/eeg,"[864.2857142857143, 260.6959706959707, 737.3626373626374, 801.8315018315019]"
2025-11-19T16:19:48.973756,/muse/eeg,"[718.8278388278388, 300.5860805860806, 722.0512820512821, 705.5311355311355]"
2025-11-19T16:19:48.974151,/muse/eeg,"[640.6593406593407, 70.91575091575092, 660.8058608058608, 654.3589743589744]"
2025-11-19T16:19:48.974151,/muse/eeg,"[640.6593406593407, 70.91575091575092, 660.8058608058608, 654.3589743589744]"
2025-11-19T16:19:48.974151,/muse/eeg,"[640.6593406593407, 70.91575091575092, 660.8058608058608, 654.3589743589744]"
2025-11-19T16:19:48.975148,/muse/eeg,"[640.6593406593407, 70.91575091575092, 660.8058608058608, 654.3589743589744]"
2025-11-19T16:19:48.975148,/muse/eeg,"[640.6593406593407, 70.91575091575092, 660.8058608058608, 654.3589743589744]"
2025-11-19T16:19:48.976244,/muse/eeg,"[774.4322344322345, 108.79120879120879, 698.6813186813187, 725.2747252747253]"
2025-11-19T16:19:48.976244,/muse/eeg,"[633.4065934065934, 155.93406593406593, 616.886446886447, 660.4029304029305]"
2025-11-19T16:19:48.976244,/muse/eeg,"[844.1391941391942, 375.12820512820514, 674.1025641025641, 789.3406593406594]"
2025-11-19T16:19:48.977292,/muse/eeg,"[662.8205128205128, 54.395604395604394, 660.0, 675.3113553113553]"
2025-11-19T16:19:48.977292,/muse/eeg,"[824.3956043956044, 489.1575091575092, 740.5860805860806, 774.4322344322345]"
2025-11-19T16:19:48.977292,/muse/eeg,"[653.956043956044, 157.14285714285714, 631.7948717948718, 687.3992673992674]"
2025-11-19T16:19:48.978230,/muse/eeg,"[653.956043956044, 157.14285714285714, 631.7948717948718, 687.3992673992674]"
2025-11-19T16:19:48.978818,/muse/eeg,"[653.956043956044, 157.14285714285714, 631.7948717948718, 687.3992673992674]"
2025-11-19T16:19:48.978818,/muse/eeg,"[653.956043956044, 157.14285714285714, 631.7948717948718, 687.3992673992674]"
2025-11-19T16:19:48.978818,/muse/eeg,"[653.956043956044, 157.14285714285714, 631.7948717948718, 687.3992673992674]"
2025-11-19T16:19:48.978818,/muse/eeg,"[653.956043956044, 157.14285714285714, 631.7948717948718, 687.3992673992674]"
2025-11-19T16:19:48.978818,/muse/eeg,"[653.956043956044, 157.14285714285714, 631.7948717948718, 687.3992673992674]"
2025-11-19T16:19:48.978818,/muse/eeg,"[623.3333333333334, 0.0, 674.5054945054945, 654.3589743589744]"
2025-11-19T16:19:48.978818,/muse/eeg,"[789.7435897435897, 294.54212454212455, 664.8351648351648, 761.941391941392]"
2025-11-19T16:19:48.978818,/muse/eeg,"[789.7435897435897, 294.54212454212455, 664.8351648351648, 761.941391941392]"
2025-11-19T16:19:48.978818,/muse/eeg,"[789.7435897435897, 294.54212454212455, 664.8351648351648, 761.941391941392]"
2025-11-19T16:19:48.978818,/muse/eeg,"[789.7435897435897, 294.54212454212455, 664.8351648351648, 761.941391941392]"
2025-11-19T16:19:48.982816,/muse/eeg,"[789.7435897435897, 294.54212454212455, 664.8351648351648, 761.941391941392]"
2025-11-19T16:19:48.982816,/muse/eeg,"[789.7435897435897, 294.54212454212455, 664.8351648351648, 761.941391941392]"
2025-11-19T16:19:48.982816,/muse/eeg,"[789.7435897435897, 294.54212454212455, 664.8351648351648, 761.941391941392]"
2025-11-19T16:19:48.983828,/muse/eeg,"[789.7435897435897, 294.54212454212455, 664.8351648351648, 761.941391941392]"
2025-11-19T16:19:48.983828,/muse/eeg,"[789.7435897435897, 294.54212454212455, 664.8351648351648, 761.941391941392]"
2025-11-19T16:19:48.983828,/muse/eeg,"[789.7435897435897, 294.54212454212455, 664.8351648351648, 761.941391941392]"
2025-11-19T16:19:48.984833,/muse/eeg,"[789.7435897435897, 294.54212454212455, 664.8351648351648, 761.941391941392]"
2025-11-19T16:19:48.984833,/muse/eeg,"[644.2857142857143, 234.9084249084249, 664.0293040293041, 671.2820512820513]"
2025-11-19T16:19:48.984833,/muse/eeg,"[721.6483516483516, 195.82417582417582, 732.1245421245421, 720.8424908424909]"
2025-11-19T16:19:48.985844,/muse/eeg,"[861.4652014652015, 390.43956043956047, 751.0622710622711, 786.1172161172161]"
2025-11-19T16:19:48.985844,/muse/eeg,"[861.4652014652015, 390.43956043956047, 751.0622710622711, 786.1172161172161]"
2025-11-19T16:19:48.985844,/muse/eeg,"[861.4652014652015, 390.43956043956047, 751.0622710622711, 786.1172161172161]"
2025-11-19T16:19:48.986906,/muse/eeg,"[861.4652014652015, 390.43956043956047, 751.0622710622711, 786.1172161172161]"
2025-11-19T16:19:48.986906,/muse/eeg,"[861.4652014652015, 390.43956043956047, 751.0622710622711, 786.1172161172161]"
2025-11-19T16:19:48.987547,/muse/eeg,"[861.4652014652015, 390.43956043956047, 751.0622710622711, 786.1172161172161]"
2025-11-19T16:19:48.987547,/muse/eeg,"[861.4652014652015, 390.43956043956047, 751.0622710622711, 786.1172161172161]"
2025-11-19T16:19:48.987547,/muse/eeg,"[861.4652014652015, 390.43956043956047, 751.0622710622711, 786.1172161172161]"
2025-11-19T16:19:48.987547,/muse/eeg,"[861.4652014652015, 390.43956043956047, 751.0622710622711, 786.1172161172161]"
2025-11-19T16:19:48.987547,/muse/eeg,"[861.4652014652015, 390.43956043956047, 751.0622710622711, 786.1172161172161]"
2025-11-19T16:19:48.987547,/muse/eeg,"[773.6263736263736, 566.1172161172161, 718.4249084249085, 732.9304029304029]"
2025-11-19T16:19:48.987547,/muse/eeg,"[685.3846153846154, 78.97435897435898, 689.4139194139194, 683.7728937728938]"
2025-11-19T16:19:48.987547,/muse/eeg,"[685.3846153846154, 78.97435897435898, 689.4139194139194, 683.7728937728938]"
2025-11-19T16:19:48.987547,/muse/eeg,"[699.0842490842491, 261.50183150183153, 688.2051282051282, 703.1135531135532]"
2025-11-19T16:19:48.987547,/muse/eeg,"[784.9084249084249, 253.84615384615384, 776.4468864468864, 740.989010989011]"
2025-11-19T16:19:48.987547,/muse/eeg,"[784.9084249084249, 253.84615384615384, 776.4468864468864, 740.989010989011]"
2025-11-19T16:19:48.987547,/muse/eeg,"[784.9084249084249, 253.84615384615384, 776.4468864468864, 740.989010989011]"
2025-11-19T16:19:48.987547,/muse/eeg,"[784.9084249084249, 253.84615384615384, 776.4468864468864, 740.989010989011]"
2025-11-19T16:19:48.987547,/muse/eeg,"[784.9084249084249, 253.84615384615384, 776.4468864468864, 740.989010989011]"
2025-11-19T16:19:48.987547,/muse/eeg,"[784.9084249084249, 253.84615384615384, 776.4468864468864, 740.989010989011]"
2025-11-19T16:19:48.987547,/muse/eeg,"[784.9084249084249, 253.84615384615384, 776.4468864468864, 740.989010989011]"
2025-11-19T16:19:48.993254,/muse/eeg,"[784.9084249084249, 253.84615384615384, 776.4468864468864, 740.989010989011]"
2025-11-19T16:19:48.993254,/muse/eeg,"[875.9706959706959, 550.4029304029305, 777.6556776556777, 806.2637362637363]"
2025-11-19T16:19:48.993254,/muse/eeg,"[865.8974358974359, 435.5677655677656, 821.978021978022, 794.5787545787546]"
2025-11-19T16:19:48.994270,/muse/eeg,"[678.1318681318681, 59.633699633699635, 795.3846153846154, 681.7582417582418]"
2025-11-19T16:19:48.994270,/muse/eeg,"[648.7179487179487, 103.55311355311356, 821.978021978022, 657.1794871794872]"
2025-11-19T16:19:48.995396,/muse/eeg,"[648.7179487179487, 103.55311355311356, 821.978021978022, 657.1794871794872]"
2025-11-19T16:19:48.995719,/muse/eeg,"[648.7179487179487, 103.55311355311356, 821.978021978022, 657.1794871794872]"
2025-11-19T16:19:48.995719,/muse/eeg,"[648.7179487179487, 103.55311355311356, 821.978021978022, 657.1794871794872]"
2025-11-19T16:19:48.995719,/muse/eeg,"[648.7179487179487, 103.55311355311356, 821.978021978022, 657.1794871794872]"
2025-11-19T16:19:48.995719,/muse/eeg,"[648.7179487179487, 103.55311355311356, 821.978021978022, 657.1794871794872]"
2025-11-19T16:19:48.995719,/muse/eeg,"[648.7179487179487, 103.55311355311356, 821.978021978022, 657.1794871794872]"
2025-11-19T16:19:48.995719,/muse/eeg,"[648.7179487179487, 103.55311355311356, 821.978021978022, 657.1794871794872]"
2025-11-19T16:19:48.995719,/muse/eeg,"[648.7179487179487, 103.55311355311356, 821.978021978022, 657.1794871794872]"
2025-11-19T16:19:48.995719,/muse/eeg,"[803.8461538461539, 194.6153846153846, 814.7252747252747, 758.3150183150184]"
2025-11-19T16:19:48.995719,/muse/eeg,"[635.8241758241759, 118.46153846153847, 750.2564102564103, 645.0915750915751]"
2025-11-19T16:19:48.995719,/muse/eeg,"[762.3443223443223, 147.87545787545787, 765.1648351648352, 734.945054945055]"
2025-11-19T16:19:48.995719,/muse/eeg,"[762.3443223443223, 147.87545787545787, 765.1648351648352, 734.945054945055]"
2025-11-19T16:19:48.995719,/muse/eeg,"[762.3443223443223, 147.87545787545787, 765.1648351648352, 734.945054945055]"
2025-11-19T16:19:48.995719,/muse/eeg,"[644.2857142857143, 146.66666666666666, 793.3699633699634, 652.3443223443223]"
2025-11-19T16:19:48.995719,/muse/eeg,"[644.2857142857143, 146.66666666666666, 793.3699633699634, 652.3443223443223]"
2025-11-19T16:19:48.995719,/muse/eeg,"[644.2857142857143, 146.66666666666666, 793.3699633699634, 652.3443223443223]"
2025-11-19T16:19:48.995719,/muse/eeg,"[644.2857142857143, 146.66666666666666, 793.3699633699634, 652.3443223443223]"
2025-11-19T16:19:48.995719,/muse/eeg,"[644.2857142857143, 146.66666666666666, 793.3699633699634, 652.3443223443223]"
2025-11-19T16:19:48.995719,/muse/eeg,"[644.2857142857143, 146.66666666666666, 793.3699633699634, 652.3443223443223]"
2025-11-19T16:19:48.995719,/muse/eeg,"[644.2857142857143, 146.66666666666666, 793.3699633699634, 652.3443223443223]"
2025-11-19T16:19:49.003418,/muse/eeg,"[763.956043956044, 478.6813186813187, 808.6813186813187, 738.974358974359]"
2025-11-19T16:19:49.003418,/muse/eeg,"[763.956043956044, 478.6813186813187, 808.6813186813187, 738.974358974359]"
2025-11-19T16:19:49.003418,/muse/eeg,"[763.956043956044, 478.6813186813187, 808.6813186813187, 738.974358974359]"
2025-11-19T16:19:49.004430,/muse/eeg,"[763.956043956044, 478.6813186813187, 808.6813186813187, 738.974358974359]"
2025-11-19T16:19:49.004430,/muse/eeg,"[763.956043956044, 478.6813186813187, 808.6813186813187, 738.974358974359]"
2025-11-19T16:19:49.004430,/muse/eeg,"[763.956043956044, 478.6813186813187, 808.6813186813187, 738.974358974359]"
2025-11-19T16:19:49.005459,/muse/eeg,"[763.956043956044, 478.6813186813187, 808.6813186813187, 738.974358974359]"
2025-11-19T16:19:49.005459,/muse/eeg,"[763.956043956044, 478.6813186813187, 808.6813186813187, 738.974358974359]"
2025-11-19T16:19:49.005459,/muse/eeg,"[763.956043956044, 478.6813186813187, 808.6813186813187, 738.974358974359]"
2025-11-19T16:19:49.006468,/muse/eeg,"[763.956043956044, 478.6813186813187, 808.6813186813187, 738.974358974359]"
2025-11-19T16:19:49.006468,/muse/eeg,"[763.956043956044, 478.6813186813187, 808.6813186813187, 738.974358974359]"
2025-11-19T16:19:49.006468,/muse/eeg,"[763.956043956044, 478.6813186813187, 808.6813186813187, 738.974358974359]"
2025-11-19T16:19:49.006468,/muse/eeg,"[619.3040293040293, 72.52747252747253, 782.0879120879121, 654.7619047619048]"
2025-11-19T16:19:49.007371,/muse/eeg,"[815.5311355311355, 219.5970695970696, 908.2051282051282, 761.1355311355312]"
2025-11-19T16:19:49.008098,/muse/eeg,"[815.5311355311355, 219.5970695970696, 908.2051282051282, 761.1355311355312]"
2025-11-19T16:19:49.008098,/muse/eeg,"[815.5311355311355, 219.5970695970696, 908.2051282051282, 761.1355311355312]"
2025-11-19T16:19:49.008098,/muse/eeg,"[815.5311355311355, 219.5970695970696, 908.2051282051282, 761.1355311355312]"
2025-11-19T16:19:49.008098,/muse/eeg,"[815.5311355311355, 219.5970695970696, 908.2051282051282, 761.1355311355312]"
2025-11-19T16:19:49.008098,/muse/eeg,"[815.5311355311355, 219.5970695970696, 908.2051282051282, 761.1355311355312]"
2025-11-19T16:19:49.008098,/muse/eeg,"[856.2271062271062, 552.014652014652, 896.9230769230769, 797.3992673992674]"
2025-11-19T16:19:49.008098,/muse/eeg,"[856.2271062271062, 552.014652014652, 896.9230769230769, 797.3992673992674]"
2025-11-19T16:19:49.008098,/muse/eeg,"[856.2271062271062, 552.014652014652, 896.9230769230769, 797.3992673992674]"
2025-11-19T16:19:49.008098,/muse/eeg,"[856.2271062271062, 552.014652014652, 896.9230769230769, 797.3992673992674]"
2025-11-19T16:19:49.008098,/muse/eeg,"[856.2271062271062, 552.014652014652, 896.9230769230769, 797.3992673992674]"
2025-11-19T16:19:49.011740,/muse/eeg,"[733.3333333333334, 390.0366300366301, 878.7912087912089, 726.0805860805862]"
2025-11-19T16:19:49.012506,/muse/eeg,"[865.0915750915751, 444.43223443223445, 920.6959706959707, 790.1465201465202]"
2025-11-19T16:19:49.012506,/muse/eeg,"[629.3772893772893, 179.3040293040293, 895.3113553113553, 649.5238095238095]"
2025-11-19T16:19:49.012506,/muse/eeg,"[837.2893772893773, 53.99267399267399, 924.7252747252747, 774.0293040293041]"
2025-11-19T16:19:49.012506,/muse/eeg,"[649.5238095238095, 153.1135531135531, 957.3626373626374, 657.1794871794872]"
2025-11-19T16:19:49.012506,/muse/eeg,"[800.6227106227107, 114.83516483516483, 939.6336996336996, 753.4798534798535]"
2025-11-19T16:19:49.012506,/muse/eeg,"[800.6227106227107, 114.83516483516483, 939.6336996336996, 753.4798534798535]"
2025-11-19T16:19:49.015977,/muse/eeg,"[800.6227106227107, 114.83516483516483, 939.6336996336996, 753.4798534798535]"
2025-11-19T16:19:49.015977,/muse/eeg,"[800.6227106227107, 114.83516483516483, 939.6336996336996, 753.4798534798535]"
2025-11-19T16:19:49.015977,/muse/eeg,"[800.6227106227107, 114.83516483516483, 939.6336996336996, 753.4798534798535]"
2025-11-19T16:19:49.016987,/muse/eeg,"[800.6227106227107, 114.83516483516483, 939.6336996336996, 753.4798534798535]"
2025-11-19T16:19:49.017520,/muse/eeg,"[800.6227106227107, 114.83516483516483, 939.6336996336996, 753.4798534798535]"
2025-11-19T16:19:49.018072,/muse/eeg,"[849.3772893772895, 437.98534798534797, 963.8095238095239, 785.7142857142858]"
2025-11-19T16:19:49.018072,/muse/eeg,"[753.0769230769231, 155.12820512820514, 923.1135531135532, 726.4835164835165]"
2025-11-19T16:19:49.018072,/muse/eeg,"[860.2564102564103, 619.3040293040293, 950.1098901098901, 791.7582417582418]"
2025-11-19T16:19:49.019083,/muse/eeg,"[711.1721611721612, 0.0, 874.3589743589744, 704.3223443223443]"
2025-11-19T16:19:49.019083,/muse/eeg,"[858.2417582417582, 269.96336996337, 958.5714285714286, 794.5787545787546]"
2025-11-19T16:19:49.019083,/muse/eeg,"[858.2417582417582, 269.96336996337, 958.5714285714286, 794.5787545787546]"
2025-11-19T16:19:49.020273,/muse/eeg,"[858.2417582417582, 269.96336996337, 958.5714285714286, 794.5787545787546]"
2025-11-19T16:19:49.020273,/muse/eeg,"[858.2417582417582, 269.96336996337, 958.5714285714286, 794.5787545787546]"
2025-11-19T16:19:49.020273,/muse/eeg,"[858.2417582417582, 269.96336996337, 958.5714285714286, 794.5787545787546]"
2025-11-19T16:19:49.021338,/muse/eeg,"[792.967032967033, 520.989010989011, 947.2893772893773, 756.7032967032967]"
2025-11-19T16:19:49.021338,/muse/eeg,"[665.2380952380953, 0.0, 822.3809523809524, 676.1172161172161]"
2025-11-19T16:19:49.021338,/muse/eeg,"[665.2380952380953, 0.0, 822.3809523809524, 676.1172161172161]"
2025-11-19T16:19:49.021338,/muse/eeg,"[866.3003663003664, 555.2380952380953, 925.1282051282052, 786.9230769230769]"
2025-11-19T16:19:49.021338,/muse/eeg,"[612.4542124542124, 0.0, 864.2857142857143, 635.4212454212454]"
2025-11-19T16:19:49.023535,/muse/eeg,"[612.4542124542124, 0.0, 864.2857142857143, 635.4212454212454]"
2025-11-19T16:19:49.023535,/muse/eeg,"[612.4542124542124, 0.0, 864.2857142857143, 635.4212454212454]"
2025-11-19T16:19:49.023535,/muse/eeg,"[612.4542124542124, 0.0, 864.2857142857143, 635.4212454212454]"
2025-11-19T16:19:49.024533,/muse/eeg,"[612.4542124542124, 0.0, 864.2857142857143, 635.4212454212454]"
2025-11-19T16:19:49.024533,/muse/eeg,"[612.4542124542124, 0.0, 864.2857142857143, 635.4212454212454]"
2025-11-19T16:19:49.024533,/muse/eeg,"[612.4542124542124, 0.0, 864.2857142857143, 635.4212454212454]"
2025-11-19T16:19:49.025578,/muse/eeg,"[612.4542124542124, 0.0, 864.2857142857143, 635.4212454212454]"
2025-11-19T16:19:49.025578,/muse/eeg,"[612.4542124542124, 0.0, 864.2857142857143, 635.4212454212454]"
2025-11-19T16:19:49.025578,/muse/eeg,"[612.4542124542124, 0.0, 864.2857142857143, 635.4212454212454]"
2025-11-19T16:19:49.026598,/muse/eeg,"[612.4542124542124, 0.0, 864.2857142857143, 635.4212454212454]"
2025-11-19T16:19:49.026598,/muse/eeg,"[863.4798534798535, 468.6080586080586, 912.6373626373627, 775.6410256410256]"
2025-11-19T16:19:49.026598,/muse/eeg,"[866.7032967032967, 248.2051282051282, 993.2234432234433, 792.967032967033]"
2025-11-19T16:19:49.027646,/muse/eeg,"[745.8241758241759, 248.2051282051282, 993.2234432234433, 792.967032967033]"
2025-11-19T16:19:49.027646,/muse/eeg,"[745.8241758241759, 498.82783882783883, 1006.9230769230769, 726.4835164835165]"
2025-11-19T16:19:49.028308,/muse/eeg,"[745.8241758241759, 498.82783882783883, 1006.9230769230769, 726.4835164835165]"
2025-11-19T16:19:49.028802,/muse/eeg,"[745.8241758241759, 498.82783882783883, 1006.9230769230769, 726.4835164835165]"
2025-11-19T16:19:49.028802,/muse/eeg,"[745.8241758241759, 498.82783882783883, 1006.9230769230769, 726.4835164835165]"
2025-11-19T16:19:49.028802,/muse/eeg,"[745.8241758241759, 498.82783882783883, 1006.9230769230769, 726.4835164835165]"
2025-11-19T16:19:49.028802,/muse/eeg,"[745.8241758241759, 498.82783882783883, 1006.9230769230769, 726.4835164835165]"
2025-11-19T16:19:49.028802,/muse/eeg,"[745.8241758241759, 498.82783882783883, 1006.9230769230769, 726.4835164835165]"
2025-11-19T16:19:49.028802,/muse/eeg,"[745.8241758241759, 498.82783882783883, 1006.9230769230769, 726.4835164835165]"
2025-11-19T16:19:49.028802,/muse/eeg,"[745.8241758241759, 498.82783882783883, 1006.9230769230769, 726.4835164835165]"
2025-11-19T16:19:49.028802,/muse/eeg,"[841.3186813186813, 85.01831501831502, 1063.7362637362637, 791.7582417582418]"
2025-11-19T16:19:49.028802,/muse/eeg,"[654.3589743589744, 33.443223443223445, 998.4615384615385, 672.0879120879121]"
2025-11-19T16:19:49.028802,/muse/eeg,"[863.0769230769231, 462.5641025641026, 1104.835164835165, 789.3406593406594]"
2025-11-19T16:19:49.028802,/muse/eeg,"[863.0769230769231, 462.5641025641026, 1104.835164835165, 789.3406593406594]"
2025-11-19T16:19:49.032907,/muse/eeg,"[863.0769230769231, 462.5641025641026, 1104.835164835165, 789.3406593406594]"
2025-11-19T16:19:49.032907,/muse/eeg,"[863.0769230769231, 462.5641025641026, 1104.835164835165, 789.3406593406594]"
2025-11-19T16:19:49.032907,/muse/eeg,"[863.0769230769231, 462.5641025641026, 1104.835164835165, 789.3406593406594]"
2025-11-19T16:19:49.033941,/muse/eeg,"[863.0769230769231, 462.5641025641026, 1104.835164835165, 789.3406593406594]"
2025-11-19T16:19:49.033941,/muse/eeg,"[863.0769230769231, 462.5641025641026, 1104.835164835165, 789.3406593406594]"
2025-11-19T16:19:49.033941,/muse/eeg,"[863.0769230769231, 462.5641025641026, 1104.835164835165, 789.3406593406594]"
2025-11-19T16:19:49.033941,/muse/eeg,"[863.0769230769231, 462.5641025641026, 1104.835164835165, 789.3406593406594]"
2025-11-19T16:19:49.035053,/muse/eeg,"[863.0769230769231, 462.5641025641026, 1104.835164835165, 789.3406593406594]"
2025-11-19T16:19:49.035053,/muse/eeg,"[722.8571428571429, 390.0366300366301, 1041.978021978022, 700.2930402930403]"
2025-11-19T16:19:49.036078,/muse/eeg,"[878.3882783882784, 474.65201465201466, 1068.974358974359, 794.981684981685]"
2025-11-19T16:19:49.036078,/muse/eeg,"[633.4065934065934, 0.0, 984.7619047619048, 661.6117216117216]"
2025-11-19T16:19:49.036078,/muse/eeg,"[797.8021978021978, 398.4981684981685, 1028.6813186813188, 752.2710622710623]"
2025-11-19T16:19:49.036078,/muse/eeg,"[674.1025641025641, 116.04395604395604, 1076.2271062271063, 674.5054945054945]"
2025-11-19T16:19:49.037095,/muse/eeg,"[843.3333333333334, 573.3699633699634, 1110.4761904761906, 772.4175824175825]"
2025-11-19T16:19:49.037492,/muse/eeg,"[843.3333333333334, 573.3699633699634, 1110.4761904761906, 772.4175824175825]"
2025-11-19T16:19:49.037492,/muse/eeg,"[843.3333333333334, 573.3699633699634, 1110.4761904761906, 772.4175824175825]"
2025-11-19T16:19:49.037492,/muse/eeg,"[843.3333333333334, 573.3699633699634, 1110.4761904761906, 772.4175824175825]"
2025-11-19T16:19:49.037492,/muse/eeg,"[843.3333333333334, 573.3699633699634, 1110.4761904761906, 772.4175824175825]"
2025-11-19T16:19:49.037492,/muse/eeg,"[843.3333333333334, 573.3699633699634, 1110.4761904761906, 772.4175824175825]"
2025-11-19T16:19:49.037492,/muse/eeg,"[843.3333333333334, 573.3699633699634, 1110.4761904761906, 772.4175824175825]"
2025-11-19T16:19:49.037492,/muse/eeg,"[839.3040293040293, 433.5531135531136, 1026.2637362637363, 778.0586080586081]"
2025-11-19T16:19:49.037492,/muse/eeg,"[711.978021978022, 73.33333333333333, 1002.4908424908425, 707.1428571428571]"
2025-11-19T16:19:49.037492,/muse/eeg,"[749.8534798534798, 68.0952380952381, 1093.956043956044, 730.5128205128206]"
2025-11-19T16:19:49.037492,/muse/eeg,"[709.5604395604396, 158.35164835164835, 1095.1648351648353, 692.2344322344322]"
2025-11-19T16:19:49.037492,/muse/eeg,"[741.3919413919414, 11.684981684981686, 1056.080586080586, 754.2857142857143]"
2025-11-19T16:19:49.037492,/muse/eeg,"[709.5604395604396, 158.35164835164835, 1095.1648351648353, 692.2344322344322]"
2025-11-19T16:19:49.037492,/muse/eeg,"[709.5604395604396, 158.35164835164835, 1095.1648351648353, 692.2344322344322]"
2025-11-19T16:19:49.037492,/muse/eeg,"[709.5604395604396, 158.35164835164835, 1095.1648351648353, 692.2344322344322]"
2025-11-19T16:19:49.037492,/muse/eeg,"[709.5604395604396, 158.35164835164835, 1095.1648351648353, 692.2344322344322]"
2025-11-19T16:19:49.043107,/muse/eeg,"[709.5604395604396, 158.35164835164835, 1095.1648351648353, 692.2344322344322]"
2025-11-19T16:19:49.043107,/muse/eeg,"[709.5604395604396, 158.35164835164835, 1095.1648351648353, 692.2344322344322]"
2025-11-19T16:19:49.043107,/muse/eeg,"[709.5604395604396, 158.35164835164835, 1095.1648351648353, 692.2344322344322]"
2025-11-19T16:19:49.044118,/muse/eeg,"[852.6007326007326, 223.22344322344324, 1112.8937728937728, 790.5494505494506]"
2025-11-19T16:19:49.044118,/muse/eeg,"[637.4358974358975, 482.7106227106227, 1071.7948717948718, 662.8205128205128]"
2025-11-19T16:19:49.045141,/muse/eeg,"[829.2307692307693, 215.97069597069597, 1061.3186813186815, 770.8058608058608]"
2025-11-19T16:19:49.045141,/muse/eeg,"[639.8534798534798, 0.0, 1019.0109890109891, 650.3296703296703]"
2025-11-19T16:19:49.045746,/muse/eeg,"[862.6739926739926, 226.44688644688645, 1110.8791208791208, 785.3113553113553]"
2025-11-19T16:19:49.045746,/muse/eeg,"[643.4798534798535, 0.0, 1051.6483516483518, 649.5238095238095]"
2025-11-19T16:19:49.045746,/muse/eeg,"[643.4798534798535, 0.0, 1051.6483516483518, 649.5238095238095]"
2025-11-19T16:19:49.045746,/muse/eeg,"[643.4798534798535, 0.0, 1051.6483516483518, 649.5238095238095]"
2025-11-19T16:19:49.045746,/muse/eeg,"[643.4798534798535, 0.0, 1051.6483516483518, 649.5238095238095]"
2025-11-19T16:19:49.045746,/muse/eeg,"[643.4798534798535, 0.0, 1051.6483516483518, 649.5238095238095]"
2025-11-19T16:19:49.045746,/muse/eeg,"[643.4798534798535, 0.0, 1051.6483516483518, 649.5238095238095]"
2025-11-19T16:19:49.045746,/muse/eeg,"[643.4798534798535, 0.0, 1051.6483516483518, 649.5238095238095]"
2025-11-19T16:19:49.045746,/muse/eeg,"[746.6300366300367, 33.040293040293044, 1118.937728937729, 717.6190476190476]"
2025-11-19T16:19:49.045746,/muse/eeg,"[761.941391941392, 514.945054945055, 1114.9084249084249, 743.4065934065934]"
2025-11-19T16:19:49.045746,/muse/eeg,"[761.941391941392, 514.945054945055, 1114.9084249084249, 743.4065934065934]"
2025-11-19T16:19:49.045746,/muse/eeg,"[681.3553113553114, 241.75824175824175, 1125.787545787546, 680.952380952381]"
2025-11-19T16:19:49.045746,/muse/eeg,"[681.3553113553114, 241.75824175824175, 1125.787545787546, 680.952380952381]"
2025-11-19T16:19:49.045746,/muse/eeg,"[681.3553113553114, 241.75824175824175, 1125.787545787546, 680.952380952381]"
2025-11-19T16:19:49.045746,/muse/eeg,"[681.3553113553114, 241.75824175824175, 1125.787545787546, 680.952380952381]"
2025-11-19T16:19:49.051738,/muse/eeg,"[681.3553113553114, 241.75824175824175, 1125.787545787546, 680.952380952381]"
2025-11-19T16:19:49.051738,/muse/eeg,"[681.3553113553114, 241.75824175824175, 1125.787545787546, 680.952380952381]"
2025-11-19T16:19:49.051738,/muse/eeg,"[681.3553113553114, 241.75824175824175, 1125.787545787546, 680.952380952381]"
2025-11-19T16:19:49.051738,/muse/eeg,"[681.3553113553114, 241.75824175824175, 1125.787545787546, 680.952380952381]"
2025-11-19T16:19:49.053365,/muse/eeg,"[681.3553113553114, 241.75824175824175, 1125.787545787546, 680.952380952381]"
2025-11-19T16:19:49.053709,/muse/eeg,"[624.945054945055, 64.46886446886447, 1149.5604395604396, 637.8388278388279]"
2025-11-19T16:19:49.053709,/muse/eeg,"[867.1062271062272, 496.8131868131868, 1186.2271062271063, 786.1172161172161]"
2025-11-19T16:19:49.053709,/muse/eeg,"[867.1062271062272, 496.8131868131868, 1186.2271062271063, 786.1172161172161]"
2025-11-19T16:19:49.054706,/muse/eeg,"[735.3479853479854, 152.30769230769232, 1112.4908424908426, 717.6190476190476]"
2025-11-19T16:19:49.054706,/muse/eeg,"[869.5238095238095, 142.23443223443223, 1180.5860805860807, 795.7875457875458]"
2025-11-19T16:19:49.054706,/muse/eeg,"[628.1684981684982, 143.84615384615384, 1193.076923076923, 657.1794871794872]"
2025-11-19T16:19:49.055718,/muse/eeg,"[682.1611721611722, 274.3956043956044, 1228.5347985347985, 675.7142857142858]"
2025-11-19T16:19:49.055718,/muse/eeg,"[821.978021978022, 332.01465201465203, 1216.043956043956, 783.2967032967033]"
2025-11-19T16:19:49.056759,/muse/eeg,"[821.978021978022, 332.01465201465203, 1216.043956043956, 783.2967032967033]"
2025-11-19T16:19:49.056759,/muse/eeg,"[821.978021978022, 332.01465201465203, 1216.043956043956, 783.2967032967033]"
2025-11-19T16:19:49.056759,/muse/eeg,"[821.978021978022, 332.01465201465203, 1216.043956043956, 783.2967032967033]"
2025-11-19T16:19:49.057652,/muse/eeg,"[821.978021978022, 332.01465201465203, 1216.043956043956, 783.2967032967033]"
2025-11-19T16:19:49.057652,/muse/eeg,"[664.0293040293041, 369.0842490842491, 1205.5677655677655, 691.025641025641]"
2025-11-19T16:19:49.057652,/muse/eeg,"[703.919413919414, 211.13553113553115, 1174.945054945055, 706.7399267399268]"
2025-11-19T16:19:49.057652,/muse/eeg,"[703.919413919414, 211.13553113553115, 1174.945054945055, 706.7399267399268]"
2025-11-19T16:19:49.057652,/muse/eeg,"[703.919413919414, 211.13553113553115, 1174.945054945055, 706.7399267399268]"
2025-11-19T16:19:49.057652,/muse/eeg,"[703.919413919414, 211.13553113553115, 1174.945054945055, 706.7399267399268]"
2025-11-19T16:19:49.057652,/muse/eeg,"[862.6739926739926, 513.3333333333334, 1240.6227106227107, 783.6996336996338]"
2025-11-19T16:19:49.057652,/muse/eeg,"[862.6739926739926, 513.3333333333334, 1240.6227106227107, 783.6996336996338]"
2025-11-19T16:19:49.057652,/muse/eeg,"[862.6739926739926, 513.3333333333334, 1240.6227106227107, 783.6996336996338]"
2025-11-19T16:19:49.057652,/muse/eeg,"[862.6739926739926, 513.3333333333334, 1240.6227106227107, 783.6996336996338]"
2025-11-19T16:19:49.061658,/muse/eeg,"[862.6739926739926, 513.3333333333334, 1240.6227106227107, 783.6996336996338]"
2025-11-19T16:19:49.062392,/muse/eeg,"[862.6739926739926, 513.3333333333334, 1240.6227106227107, 783.6996336996338]"
2025-11-19T16:19:49.062392,/muse/eeg,"[862.6739926739926, 513.3333333333334, 1240.6227106227107, 783.6996336996338]"
2025-11-19T16:19:49.062392,/muse/eeg,"[803.8461538461539, 593.919413919414, 1200.7326007326008, 753.4798534798535]"
2025-11-19T16:19:49.062392,/muse/eeg,"[840.1098901098901, 591.5018315018315, 1202.7472527472528, 775.2380952380953]"
2025-11-19T16:19:49.062392,/muse/eeg,"[630.1831501831502, 0.0, 1087.1062271062272, 665.6410256410256]"
2025-11-19T16:19:49.062392,/muse/eeg,"[786.5201465201466, 126.92307692307692, 1196.3003663003662, 753.4798534798535]"
2025-11-19T16:19:49.064787,/muse/eeg,"[706.7399267399268, 354.98168498168496, 1136.6666666666667, 718.4249084249085]"
2025-11-19T16:19:49.064787,/muse/eeg,"[743.0036630036631, 251.02564102564102, 1189.4505494505495, 714.7985347985348]"
2025-11-19T16:19:49.064787,/muse/eeg,"[743.0036630036631, 251.02564102564102, 1189.4505494505495, 714.7985347985348]"
2025-11-19T16:19:49.065799,/muse/eeg,"[743.0036630036631, 251.02564102564102, 1189.4505494505495, 714.7985347985348]"
2025-11-19T16:19:49.065799,/muse/eeg,"[743.0036630036631, 251.02564102564102, 1189.4505494505495, 714.7985347985348]"
2025-11-19T16:19:49.065799,/muse/eeg,"[743.0036630036631, 251.02564102564102, 1189.4505494505495, 714.7985347985348]"
2025-11-19T16:19:49.066909,/muse/eeg,"[743.0036630036631, 251.02564102564102, 1189.4505494505495, 714.7985347985348]"
2025-11-19T16:19:49.066909,/muse/eeg,"[743.0036630036631, 251.02564102564102, 1189.4505494505495, 714.7985347985348]"
2025-11-19T16:19:49.067435,/muse/eeg,"[862.2710622710623, 522.6007326007326, 1141.098901098901, 788.5347985347986]"
2025-11-19T16:19:49.067960,/muse/eeg,"[667.6556776556777, 0.0, 1081.868131868132, 667.2527472527473]"
2025-11-19T16:19:49.067960,/muse/eeg,"[667.6556776556777, 0.0, 1081.868131868132, 667.2527472527473]"
2025-11-19T16:19:49.067960,/muse/eeg,"[667.6556776556777, 0.0, 1081.868131868132, 667.2527472527473]"
2025-11-19T16:19:49.068972,/muse/eeg,"[667.6556776556777, 0.0, 1081.868131868132, 667.2527472527473]"
2025-11-19T16:19:49.068972,/muse/eeg,"[667.6556776556777, 0.0, 1081.868131868132, 667.2527472527473]"
2025-11-19T16:19:49.068972,/muse/eeg,"[667.6556776556777, 0.0, 1081.868131868132, 667.2527472527473]"
2025-11-19T16:19:49.069988,/muse/eeg,"[635.0183150183151, 109.1941391941392, 1123.3699633699634, 662.014652014652]"
2025-11-19T16:19:49.069988,/muse/eeg,"[635.0183150183151, 109.1941391941392, 1123.3699633699634, 662.014652014652]"
2025-11-19T16:19:49.069988,/muse/eeg,"[635.0183150183151, 109.1941391941392, 1123.3699633699634, 662.014652014652]"
2025-11-19T16:19:49.069988,/muse/eeg,"[635.0183150183151, 109.1941391941392, 1123.3699633699634, 662.014652014652]"
2025-11-19T16:19:49.069988,/muse/eeg,"[635.0183150183151, 109.1941391941392, 1123.3699633699634, 662.014652014652]"
2025-11-19T16:19:49.069988,/muse/eeg,"[788.5347985347986, 237.32600732600733, 1121.3553113553114, 755.0915750915751]"
2025-11-19T16:19:49.069988,/muse/eeg,"[743.8095238095239, 297.76556776556777, 1058.095238095238, 650.3296703296703]"
2025-11-19T16:19:49.073065,/muse/eeg,"[863.0769230769231, 64.87179487179488, 1043.1868131868132, 793.7728937728938]"
2025-11-19T16:19:49.069988,/muse/eeg,"[730.5128205128206, 339.2673992673993, 1104.4322344322345, 724.8717948717949]"
2025-11-19T16:19:49.073380,/muse/eeg,"[778.0586080586081, 98.71794871794872, 1057.6923076923076, 742.6007326007326]"
2025-11-19T16:19:49.073380,/muse/eeg,"[639.4505494505495, 282.05128205128204, 1049.2307692307693, 648.3150183150183]"
2025-11-19T16:19:49.074381,/muse/eeg,"[689.8168498168499, 155.53113553113553, 1000.0732600732601, 681.3553113553114]"
2025-11-19T16:19:49.074381,/muse/eeg,"[822.3809523809524, 441.20879120879124, 1029.0842490842492, 767.1794871794872]"
2025-11-19T16:19:49.074381,/muse/eeg,"[665.2380952380953, 305.8241758241758, 972.2710622710623, 663.6263736263736]"
2025-11-19T16:19:49.075384,/muse/eeg,"[665.2380952380953, 305.8241758241758, 972.2710622710623, 663.6263736263736]"
2025-11-19T16:19:49.075384,/muse/eeg,"[665.2380952380953, 305.8241758241758, 972.2710622710623, 663.6263736263736]"
2025-11-19T16:19:49.075384,/muse/eeg,"[665.2380952380953, 305.8241758241758, 972.2710622710623, 663.6263736263736]"
2025-11-19T16:19:49.076389,/muse/eeg,"[652.3443223443223, 0.0, 940.8424908424909, 657.985347985348]"
2025-11-19T16:19:49.076389,/muse/eeg,"[844.945054945055, 502.4542124542125, 1030.6959706959708, 777.6556776556777]"
2025-11-19T16:19:49.076389,/muse/eeg,"[697.0695970695971, 373.91941391941396, 956.959706959707, 684.981684981685]"
2025-11-19T16:19:49.077401,/muse/eeg,"[757.1062271062272, 35.45787545787546, 964.6153846153846, 728.901098901099]"
2025-11-19T16:19:49.077401,/muse/eeg,"[751.4652014652015, 382.3809523809524, 957.3626373626374, 724.8717948717949]"
2025-11-19T16:19:49.077909,/muse/eeg,"[629.7802197802198, 70.10989010989012, 893.6996336996338, 650.7326007326008]"
2025-11-19T16:19:49.077909,/muse/eeg,"[629.7802197802198, 70.10989010989012, 893.6996336996338, 650.7326007326008]"
2025-11-19T16:19:49.077909,/muse/eeg,"[629.7802197802198, 70.10989010989012, 893.6996336996338, 650.7326007326008]"
2025-11-19T16:19:49.078920,/muse/eeg,"[629.7802197802198, 70.10989010989012, 893.6996336996338, 650.7326007326008]"
2025-11-19T16:19:49.078920,/muse/eeg,"[793.7728937728938, 337.65567765567766, 965.0183150183151, 769.1941391941392]"
2025-11-19T16:19:49.079917,/muse/eeg,"[793.7728937728938, 337.65567765567766, 965.0183150183151, 769.1941391941392]"
2025-11-19T16:19:49.079917,/muse/eeg,"[793.7728937728938, 337.65567765567766, 965.0183150183151, 769.1941391941392]"
2025-11-19T16:19:49.080562,/muse/eeg,"[830.0366300366301, 467.3992673992674, 1041.5750915750916, 778.8644688644689]"
2025-11-19T16:19:49.080562,/muse/eeg,"[649.92673992674, 0.0, 978.3150183150184, 657.985347985348]"
2025-11-19T16:19:49.080562,/muse/eeg,"[671.2820512820513, 66.08058608058609, 934.7985347985348, 694.6520146520147]"
2025-11-19T16:19:49.080562,/muse/eeg,"[849.7802197802198, 366.2637362637363, 1036.3369963369964, 799.0109890109891]"
2025-11-19T16:19:49.080562,/muse/eeg,"[716.007326007326, 77.36263736263737, 929.5604395604396, 722.0512820512821]"
2025-11-19T16:19:49.080562,/muse/eeg,"[632.6007326007326, 0.0, 992.8205128205128, 655.1648351648352]"
2025-11-19T16:19:49.080562,/muse/eeg,"[866.3003663003664, 382.3809523809524, 1001.6849816849817, 784.5054945054945]"
2025-11-19T16:19:49.083123,/muse/eeg,"[866.3003663003664, 382.3809523809524, 1001.6849816849817, 784.5054945054945]"
2025-11-19T16:19:49.083123,/muse/eeg,"[866.3003663003664, 382.3809523809524, 1001.6849816849817, 784.5054945054945]"
2025-11-19T16:19:49.083123,/muse/eeg,"[866.3003663003664, 382.3809523809524, 1001.6849816849817, 784.5054945054945]"
2025-11-19T16:19:49.084134,/muse/eeg,"[866.3003663003664, 382.3809523809524, 1001.6849816849817, 784.5054945054945]"
2025-11-19T16:19:49.084134,/muse/eeg,"[866.3003663003664, 382.3809523809524, 1001.6849816849817, 784.5054945054945]"
2025-11-19T16:19:49.084134,/muse/eeg,"[759.92673992674, 218.3882783882784, 993.2234432234433, 733.3333333333334]"
2025-11-19T16:19:49.085187,/muse/eeg,"[647.5091575091575, 50.769230769230774, 956.959706959707, 670.4761904761905]"
2025-11-19T16:19:49.085187,/muse/eeg,"[788.5347985347986, 34.65201465201465, 941.2454212454213, 762.3443223443223]"
2025-11-19T16:19:49.085187,/muse/eeg,"[788.5347985347986, 34.65201465201465, 941.2454212454213, 762.3443223443223]"
2025-11-19T16:19:49.086215,/muse/eeg,"[788.5347985347986, 34.65201465201465, 941.2454212454213, 762.3443223443223]"
2025-11-19T16:19:49.086215,/muse/eeg,"[788.5347985347986, 34.65201465201465, 941.2454212454213, 762.3443223443223]"
2025-11-19T16:19:49.086215,/muse/eeg,"[788.5347985347986, 34.65201465201465, 941.2454212454213, 762.3443223443223]"
2025-11-19T16:19:49.087285,/muse/eeg,"[788.5347985347986, 34.65201465201465, 941.2454212454213, 762.3443223443223]"
2025-11-19T16:19:49.087285,/muse/eeg,"[788.5347985347986, 34.65201465201465, 941.2454212454213, 762.3443223443223]"
2025-11-19T16:19:49.087788,/muse/eeg,"[788.5347985347986, 34.65201465201465, 941.2454212454213, 762.3443223443223]"
2025-11-19T16:19:49.087788,/muse/eeg,"[788.5347985347986, 34.65201465201465, 941.2454212454213, 762.3443223443223]"
2025-11-19T16:19:49.087788,/muse/eeg,"[788.5347985347986, 34.65201465201465, 941.2454212454213, 762.3443223443223]"
2025-11-19T16:19:49.087788,/muse/eeg,"[858.2417582417582, 339.6703296703297, 979.1208791208792, 802.2344322344322]"
2025-11-19T16:19:49.087788,/muse/eeg,"[734.1391941391942, 479.8901098901099, 961.3919413919414, 713.1868131868132]"
2025-11-19T16:19:49.087788,/muse/eeg,"[747.8388278388279, 109.5970695970696, 947.2893772893773, 720.4395604395604]"
2025-11-19T16:19:49.087788,/muse/eeg,"[777.2527472527473, 296.1538461538462, 933.1868131868132, 795.7875457875458]"
2025-11-19T16:19:49.087788,/muse/eeg,"[633.0036630036631, 0.0, 886.8498168498169, 648.7179487179487]"
2025-11-19T16:19:49.087788,/muse/eeg,"[633.0036630036631, 0.0, 886.8498168498169, 648.7179487179487]"
2025-11-19T16:19:49.087788,/muse/eeg,"[633.0036630036631, 0.0, 886.8498168498169, 648.7179487179487]"
2025-11-19T16:19:49.087788,/muse/eeg,"[697.0695970695971, 17.326007326007325, 885.2380952380953, 687.3992673992674]"
2025-11-19T16:19:49.087788,/muse/eeg,"[821.978021978022, 219.1941391941392, 948.901098901099, 757.5091575091575]"
2025-11-19T16:19:49.087788,/muse/eeg,"[821.978021978022, 219.1941391941392, 948.901098901099, 757.5091575091575]"
2025-11-19T16:19:49.087788,/muse/eeg,"[657.5824175824176, 68.4981684981685, 881.6117216117217, 655.1648351648352]"
2025-11-19T16:19:49.092915,/muse/eeg,"[658.3882783882784, 12.087912087912088, 906.1904761904763, 652.7472527472528]"
2025-11-19T16:19:49.092915,/muse/eeg,"[697.4725274725275, 226.84981684981685, 869.5238095238095, 698.6813186813187]"
2025-11-19T16:19:49.093928,/muse/eeg,"[863.0769230769231, 402.5274725274725, 920.6959706959707, 797.8021978021978]"
