timestamp,address,raw_ch1,raw_ch2,raw_ch3,raw_ch4,alpha_power_ch1,alpha_power_ch2,alpha_power_ch3,alpha_power_ch4,beta_power_ch1,beta_power_ch2,beta_power_ch3,beta_power_ch4
2025-11-19T15:59:06.316484,/muse/eeg,792.1611721611722,796.5934065934066,743.0036630036631,804.6520146520147,9.709168343369544,5.260572581800137,75.31922067666453,8.982940037904484,8.076552348889933,5.32305312410693,138.13679040534834,9.314182959537561
2025-11-19T15:59:06.316484,/muse/eeg,792.1611721611722,796.5934065934066,743.0036630036631,804.6520146520147,8.576383893019466,5.730550275622553,75.38762887543955,9.327102531210546,8.195877806166457,5.678347704889497,138.49483488150577,9.261918507450307
2025-11-19T15:59:06.333014,/muse/eeg,792.1611721611722,796.5934065934066,743.0036630036631,804.6520146520147,8.39382024348376,5.821129651102334,77.30953097834944,9.220783269312943,8.235791111784424,5.760059827229224,140.43096106610267,9.142219487588184
2025-11-19T15:59:06.334301,/muse/eeg,792.1611721611722,796.5934065934066,743.0036630036631,804.6520146520147,8.263795356031743,5.726632236598629,78.72646550247194,9.209298422800808,8.240329875827449,5.55705520513672,142.0959461464185,9.104185000492313
2025-11-19T15:59:06.335355,/muse/eeg,792.1611721611722,796.5934065934066,743.0036630036631,804.6520146520147,8.193322507180572,5.619762303553043,81.12353259105254,9.200817975572559,8.251750927860579,5.264071981138333,142.37771477870166,9.16776169514139
2025-11-19T15:59:06.345421,/muse/eeg,791.7582417582418,799.0109890109891,736.5567765567765,812.7106227106227,8.21857703945592,5.524269730636478,83.55447150980085,9.467953227106326,8.301037879581687,5.039804556557287,142.20067788172946,9.531917204307723
2025-11-19T15:59:06.347524,/muse/eeg,791.7582417582418,799.0109890109891,736.5567765567765,812.7106227106227,8.384804349992793,5.491111792776486,87.00160464429638,9.433562268193107,8.316237784078373,5.074157974747817,140.49548976413803,9.366681066723238
2025-11-19T15:59:06.347524,/muse/eeg,791.7582417582418,799.0109890109891,736.5567765567765,812.7106227106227,8.675962425567121,5.582508949794743,90.13549860496443,9.42116347662331,8.231077548595955,5.193532094723263,139.05873652033458,9.137960401445273
2025-11-19T15:59:06.366569,/muse/eeg,790.952380952381,803.4432234432235,718.4249084249085,814.7252747252747,9.187986383143002,5.641324701712417,89.77265943120557,9.441879911407737,8.114201473302808,5.762067128267422,139.97889313736954,9.141437394710902
2025-11-19T15:59:06.366569,/muse/eeg,793.7728937728938,812.7106227106227,716.007326007326,806.2637362637363,9.564831620079467,5.594370168043061,89.14497871245655,9.46555926474154,8.216881508921574,7.092368624715482,139.8197529630193,9.869779739479242
2025-11-19T15:59:06.371224,/muse/eeg,788.9377289377289,807.8754578754579,670.0732600732601,802.6373626373627,9.979247628600046,6.35406648054167,82.83554054306532,9.82798149767686,8.196882928537878,6.030163353672459,148.6238125827787,10.542905579363865
2025-11-19T15:59:06.374032,/muse/eeg,805.4578754578755,809.0842490842491,753.4798534798535,805.8608058608058,11.388465495564297,7.051056547850791,92.64154727523939,10.028713661073727,9.539572944956722,5.844072674127401,158.7401101191451,9.419725136101428
2025-11-19T15:59:06.375084,/muse/eeg,805.4578754578755,809.0842490842491,753.4798534798535,805.8608058608058,8.167640009482147,7.587522709141826,92.96069620329496,9.813766996629727,8.802316292434615,6.103308060856245,155.2604663637397,9.343241079291104
2025-11-19T15:59:06.375084,/muse/eeg,805.4578754578755,809.0842490842491,753.4798534798535,805.8608058608058,7.782860151591434,8.121757046395352,90.7075255666065,10.042257928179772,8.535767229471528,6.074146963587169,154.85867212752453,9.378042893121602
2025-11-19T15:59:06.377966,/muse/eeg,805.4578754578755,809.0842490842491,753.4798534798535,805.8608058608058,8.068505881025134,9.299100930456188,84.79047161711947,9.720670124452537,8.432183825657788,5.5954842339047115,147.80071785427685,9.599821649053023
2025-11-19T15:59:06.377966,/muse/eeg,805.4578754578755,809.0842490842491,753.4798534798535,805.8608058608058,7.701168220505398,9.589861710411645,85.7402449975148,9.705062690243743,8.622976779825269,5.634176871686044,143.4311813437114,9.722575501116133
2025-11-19T15:59:06.378979,/muse/eeg,805.4578754578755,809.0842490842491,753.4798534798535,805.8608058608058,7.614547833928154,9.685189119162377,126.1976328649861,10.48850246449524,8.934297016219773,5.819245210337017,149.5637553560923,9.258247506840954
2025-11-19T15:59:06.380237,/muse/eeg,805.4578754578755,809.0842490842491,753.4798534798535,805.8608058608058,7.518223628067905,8.735074327587903,102.90348168221945,11.547492573469654,9.088107898289564,5.977224674873351,146.39547651906724,9.263701136555333
2025-11-19T15:59:06.382626,/muse/eeg,805.4578754578755,809.0842490842491,753.4798534798535,805.8608058608058,7.49893353467564,9.020898142904933,76.1176429525784,10.652428207417831,9.526462701896326,6.582345185763561,150.64134126316424,9.449676208478717
2025-11-19T15:59:06.383559,/muse/eeg,805.4578754578755,809.0842490842491,753.4798534798535,805.8608058608058,7.836294118652896,7.006262193894877,105.79968973304199,10.118547303786764,9.103370446638639,5.835873486469911,149.67532399072493,9.406531489120095
2025-11-19T15:59:06.400370,/muse/eeg,796.5934065934066,808.6813186813187,705.5311355311355,802.2344322344322,8.281750457111368,6.808938114011243,89.82699693728442,10.951202461068277,9.249512768034933,5.727410366062696,167.05147844895822,9.381087490277228
2025-11-19T15:59:06.400370,/muse/eeg,799.8168498168499,810.6959706959707,745.8241758241759,797.3992673992674,8.82471626746134,6.964925791006072,82.98339747840544,10.970243371017068,8.617109950975106,5.615735268957215,150.60937822133184,9.717258897588094
2025-11-19T15:59:06.400370,/muse/eeg,790.5494505494506,811.5018315018315,713.5897435897436,798.2051282051282,9.325355425898007,7.380024579368658,88.52789757167123,10.732875280319375,8.955317070259317,5.474695533484022,153.1344549030967,9.782541428751859
2025-11-19T15:59:06.415385,/muse/eeg,779.6703296703297,806.2637362637363,685.3846153846154,786.5201465201466,8.679141439653339,7.61719565172854,95.29599736752292,10.713570535942171,9.13262011964852,5.355457145145241,151.17100457610144,10.406603281475824
2025-11-19T15:59:06.415385,/muse/eeg,792.5641025641025,804.6520146520147,778.8644688644689,809.4871794871796,8.30436697576036,8.192915967600065,84.47913493207002,9.70283319277473,9.121683015736817,5.335288017668903,181.71705701646016,10.03968212518548
2025-11-19T15:59:06.417322,/muse/eeg,790.952380952381,804.6520146520147,778.8644688644689,809.4871794871796,8.44814346479512,8.914760096298147,86.40508536364814,9.90596084490745,9.473708096865053,5.452471409162275,181.22991350969727,10.294977963363529
2025-11-19T15:59:06.419939,/muse/eeg,790.952380952381,808.2783882783883,731.7216117216118,804.6520146520147,6.831136903348541,8.689217660833666,94.58772628564486,11.000228605952767,10.003046886937637,5.409562541815196,152.5796330813958,10.641427735835961
2025-11-19T15:59:06.420949,/muse/eeg,792.5641025641025,805.054945054945,672.4908424908425,799.4139194139194,7.287384472940099,9.867284220979734,107.17699144080714,9.90791777356349,9.92925134264955,5.906195263657144,166.8038301717482,9.088974383312072
2025-11-19T15:59:06.422473,/muse/eeg,787.3260073260074,802.2344322344322,755.0915750915751,802.6373626373627,7.024947836304683,8.96207321475534,113.56672834938541,9.819684978704704,9.252399100704709,5.394805102721071,160.4856685269436,9.220530782816885
2025-11-19T15:59:06.423196,/muse/eeg,787.3260073260074,802.2344322344322,755.0915750915751,802.6373626373627,7.2017286238056375,8.456868167352365,100.12613914631018,10.265323335802686,9.168887761917581,5.2239305586536275,154.25647615930794,9.310148689588567
2025-11-19T15:59:06.423196,/muse/eeg,787.3260073260074,802.2344322344322,755.0915750915751,802.6373626373627,7.0646366830159675,8.464285856275886,98.73582658358026,10.451572041695568,9.119088624230415,5.260909759750551,153.8134794298535,9.253037204253989
2025-11-19T15:59:06.428450,/muse/eeg,796.5934065934066,806.6666666666667,792.1611721611722,811.0989010989011,7.121931442326813,8.288380184736294,99.39994595090197,10.910853018717127,9.04658962300671,5.4293280870755245,159.8577153784543,9.046654074557814
2025-11-19T15:59:06.470002,/muse/eeg,803.4432234432235,805.8608058608058,732.9304029304029,809.0842490842491,7.234862748503087,8.270241044683576,92.07455899393975,11.207391969483872,9.047845246390569,5.3194889847791105,155.5963083149157,9.178823955851762
2025-11-19T15:59:06.472060,/muse/eeg,790.5494505494506,809.8901098901099,726.0805860805862,792.5641025641025,7.436128522113029,8.00395555860068,86.24430062334719,11.15980549647837,9.356520989722522,5.322961022635566,159.8221196431831,10.07477495779045
2025-11-19T15:59:06.473116,/muse/eeg,796.996336996337,808.6813186813187,755.0915750915751,794.5787545787546,7.554364284715666,7.974680394719495,86.31719765123981,10.610436687609972,9.102954965019787,5.168192484962449,152.19927238171314,9.515347602145141
2025-11-19T15:59:06.473116,/muse/eeg,788.5347985347986,801.025641025641,713.1868131868132,795.3846153846154,7.218441100265478,8.292768248550331,77.29803213733503,9.84144897225697,10.102239300783102,5.5595445670862444,160.95675251796678,9.138128487910617
2025-11-19T15:59:06.473116,/muse/eeg,791.3553113553114,809.4871794871796,752.6739926739926,790.952380952381,7.442414306468561,7.867064020398044,86.06828334550815,9.688831828343055,9.690358502756226,5.175549313509755,153.18372225288783,9.08944150622016
2025-11-19T15:59:06.477648,/muse/eeg,791.3553113553114,809.4871794871796,752.6739926739926,790.952380952381,7.326881935560674,7.798206561531602,83.77388179366835,10.361129437778887,9.556840834537038,5.407048514249968,153.80368841562415,9.602352128023423
2025-11-19T15:59:06.478665,/muse/eeg,797.8021978021978,804.2490842490843,736.1538461538462,796.1904761904763,6.903810794790757,8.184617324363575,85.77594950371706,8.819788492828742,9.385654960078963,5.5721132768024475,156.97025804254787,9.725232198641827
2025-11-19T15:59:06.479709,/muse/eeg,801.4285714285714,799.4139194139194,735.7509157509157,794.1758241758242,7.751434883599296,8.62156687738808,86.83306700173878,8.916221939813472,9.831881745401134,5.788913834297656,149.088738374113,9.74761483899281
2025-11-19T15:59:06.479709,/muse/eeg,794.5787545787546,805.054945054945,772.014652014652,786.9230769230769,7.769703794022168,8.323946130754802,90.35055677520634,8.979996822008577,9.166765967026617,5.359647503378668,151.59105992032352,9.144595721524402
2025-11-19T15:59:06.480736,/muse/eeg,788.5347985347986,802.2344322344322,744.6153846153846,788.1318681318681,7.976112231324333,8.396099787504276,103.5569804716826,10.887647865477767,10.86063359024878,5.309291113621637,179.5998499018599,10.074570116938938
2025-11-19T15:59:06.482922,/muse/eeg,788.5347985347986,802.2344322344322,744.6153846153846,788.1318681318681,7.585998462809458,8.434571228072558,104.36433262242898,10.212245718349273,10.09549902916418,5.316031104469738,174.80511383991723,9.575430567675323
2025-11-19T15:59:06.482922,/muse/eeg,788.5347985347986,802.2344322344322,744.6153846153846,788.1318681318681,7.250494918953244,8.664975024980865,91.78279288908496,9.068528657365745,9.469633987051164,5.33459160114861,150.2797594440576,9.558020451072144
2025-11-19T15:59:06.504193,/muse/eeg,784.5054945054945,805.8608058608058,732.1245421245421,786.9230769230769,7.248043665665218,8.875435896913586,93.27849756371516,9.691738839884504,9.521123263287283,5.593607667144499,155.50047000105005,9.522838299284325
2025-11-19T15:59:06.505499,/muse/eeg,790.952380952381,801.8315018315019,752.6739926739926,799.0109890109891,7.032184434713209,9.271659719827149,90.24980706790596,9.89599548902363,10.085033892649701,5.335288619349974,158.5119482547497,9.617170293937502
2025-11-19T15:59:06.508215,/muse/eeg,788.5347985347986,801.8315018315019,745.8241758241759,788.9377289377289,7.114614523363102,9.350184598201572,92.16471003415694,10.638704724950772,10.238733469501494,5.30931868164622,164.11728122619445,9.18618373398795
2025-11-19T15:59:06.509232,/muse/eeg,786.9230769230769,804.2490842490843,736.959706959707,787.7289377289378,7.993983131879991,8.568676863618718,113.104881598678,11.162301813041864,8.964821654576227,5.585450593546212,135.54852845942077,8.958500045544005
2025-11-19T15:59:06.510235,/muse/eeg,790.5494505494506,803.4432234432235,763.1501831501831,793.3699633699634,8.410554694505546,8.836407938368499,111.21702649943094,10.87763089909798,8.964845504056012,5.396811240758744,137.09782489801034,8.745273831812323
2025-11-19T15:59:06.510235,/muse/eeg,793.3699633699634,799.4139194139194,829.2307692307693,803.4432234432235,8.46124148919276,8.573046772682838,106.24536534450532,9.929944764344242,9.104599144124478,5.432453851094695,162.18528098640212,8.971340975312586
2025-11-19T15:59:06.511022,/muse/eeg,777.6556776556777,799.0109890109891,799.4139194139194,794.981684981685,8.3062478220433,8.377790276840859,102.23256830587266,8.719671018057014,9.796926473766998,5.513733135870295,144.07606331137788,9.24826134094139
2025-11-19T15:59:06.511639,/muse/eeg,758.7179487179487,793.3699633699634,745.4212454212454,775.6410256410256,7.979008888873447,8.108654478910987,97.26312248840135,7.613692428393519,13.446274492618873,5.870273581472892,156.6980918059944,12.00946621886829
2025-11-19T15:59:06.512662,/muse/eeg,758.7179487179487,793.3699633699634,745.4212454212454,775.6410256410256,7.373529822178303,7.806345994744203,85.55298611532396,6.574954586419177,10.993486224725173,5.5528079199058125,156.0673976396628,11.03289677499024
2025-11-19T15:59:06.513427,/muse/eeg,758.7179487179487,793.3699633699634,745.4212454212454,775.6410256410256,7.45195739022672,7.874286539091892,84.87321456598988,6.6758712950343355,9.456650357548282,5.484792618343574,152.83265440603947,10.023301723555068
2025-11-19T15:59:06.514440,/muse/eeg,758.7179487179487,793.3699633699634,745.4212454212454,775.6410256410256,7.743781411103801,8.019684682852837,86.05932865671396,7.481113114492182,8.99301760277137,5.410010448256329,142.66199823485698,9.06692616650975
2025-11-19T15:59:06.515998,/muse/eeg,758.7179487179487,793.3699633699634,745.4212454212454,775.6410256410256,8.215050173073418,8.215662794660174,88.63332504948481,8.844846786045654,9.554504492664961,5.3411611125341425,135.26094437364446,8.757636767999248
2025-11-19T15:59:06.552096,/muse/eeg,748.6446886446887,790.5494505494506,801.025641025641,777.6556776556777,8.458887642725808,8.46363785967117,86.56970127294306,10.293479980091092,9.251533638390171,5.298242885094696,150.9884248374379,9.55398846466056
2025-11-19T15:59:06.559761,/muse/eeg,766.7765567765568,772.4175824175825,931.978021978022,795.3846153846154,9.632527605050674,8.72968208352043,99.901437548996,12.792151251170477,12.783860713377388,6.230975544557136,284.8737015092256,14.305253919710141
2025-11-19T15:59:06.565154,/muse/eeg,766.7765567765568,772.4175824175825,931.978021978022,795.3846153846154,9.94133152786894,8.905096637292779,97.01599312502418,13.18293214129972,12.590161187589196,5.974626819751263,235.63031337487553,13.813475808744647
2025-11-19T15:59:06.566181,/muse/eeg,766.7765567765568,772.4175824175825,931.978021978022,795.3846153846154,8.704389449803973,8.367611651085431,97.95830557670911,8.849138387870433,11.101704817530377,5.319060174490176,169.03094274897398,11.005743107463129
2025-11-19T15:59:06.568532,/muse/eeg,766.7765567765568,772.4175824175825,931.978021978022,795.3846153846154,8.849538959340025,8.083177815663795,90.0887143714541,5.5081307863070235,11.616493780600639,5.311778799170948,168.03735566884853,11.599997907259201
2025-11-19T15:59:06.569530,/muse/eeg,766.7765567765568,772.4175824175825,931.978021978022,795.3846153846154,8.576283787851208,8.009607250610612,95.37878739570988,6.883575679467349,10.551632840306638,5.868382308657175,198.8261666525176,10.857436939384698
2025-11-19T15:59:06.571367,/muse/eeg,766.7765567765568,772.4175824175825,931.978021978022,795.3846153846154,8.576280853259117,8.088940551512751,94.84639607329159,6.021552696681024,10.77295874837158,6.066425620735348,224.87218366476495,11.209592748485722
2025-11-19T15:59:06.572416,/muse/eeg,766.7765567765568,772.4175824175825,931.978021978022,795.3846153846154,8.299818450840048,8.271209043251826,95.34850709244162,5.795264914195524,10.746728260003138,6.002569113103569,229.61775900681224,11.658312422059273
2025-11-19T15:59:06.572416,/muse/eeg,766.7765567765568,772.4175824175825,931.978021978022,795.3846153846154,8.205669792282684,8.213095815625541,95.12300572603033,5.661253083072916,11.03015917068235,5.893946514179337,225.18157956762667,12.069463381308633
2025-11-19T15:59:06.572416,/muse/eeg,766.7765567765568,772.4175824175825,931.978021978022,795.3846153846154,8.196662951320036,8.144097823271235,94.69021126264772,5.662290565069494,11.198438329575538,5.7887937609381765,221.13526659528102,12.2289813147273
2025-11-19T15:59:06.572416,/muse/eeg,766.7765567765568,772.4175824175825,931.978021978022,795.3846153846154,8.29725640425427,8.070461934650126,93.96390213639022,5.801409861612015,11.121699356003322,5.728754373349245,214.10021910654973,11.936727033211977
2025-11-19T15:59:06.572416,/muse/eeg,766.7765567765568,772.4175824175825,931.978021978022,795.3846153846154,8.50464482232383,7.9997763157489175,92.98989926189157,6.038331444146088,10.913727474508988,5.679499146014397,203.9039298813029,11.39943500729387
2025-11-19T15:59:06.599368,/muse/eeg,775.6410256410256,774.4322344322345,919.8901098901099,786.1172161172161,8.51400306934081,7.927981274495276,93.52345574439776,6.349281846434853,11.085184226761086,5.565902318004569,195.08089508109836,11.190027300816638
2025-11-19T15:59:06.600273,/muse/eeg,792.5641025641025,780.0732600732601,908.6080586080586,799.4139194139194,8.25317916295146,7.900435562189697,92.33173151148455,6.646503734146512,13.230533844412442,5.437360647810107,196.8633637061222,11.492818580821986
2025-11-19T15:59:06.602761,/muse/eeg,793.7728937728938,786.1172161172161,879.1941391941392,814.3223443223443,8.361176372803566,7.871644239146947,93.93427928136394,6.937938481670868,12.514465228040091,5.508617168648974,201.57460735101512,13.962562247887313
2025-11-19T15:59:06.603806,/muse/eeg,793.7728937728938,786.1172161172161,879.1941391941392,814.3223443223443,8.177423706060791,7.879559583621121,107.99584753704228,5.999663304863695,11.637985122577142,5.571685066101004,203.92774603368866,13.454601655787119
2025-11-19T15:59:06.604793,/muse/eeg,793.7728937728938,786.1172161172161,879.1941391941392,814.3223443223443,8.346338113981654,8.115483925775234,91.87214977030013,5.949217227600451,11.640060689226727,5.595331004063988,210.661757243005,12.85067743548868
2025-11-19T15:59:06.604793,/muse/eeg,793.7728937728938,786.1172161172161,879.1941391941392,814.3223443223443,8.841827091599214,8.059779137735411,105.81577645688489,5.41640767562896,11.962398310941225,5.666205524352199,205.1528029303366,12.494316113907239
2025-11-19T15:59:06.604793,/muse/eeg,793.7728937728938,786.1172161172161,879.1941391941392,814.3223443223443,9.297431969744892,8.125609043578176,98.63580657184588,5.391429302534414,12.146416391942388,5.792224709717541,206.22442716264237,12.309503907299026
2025-11-19T15:59:06.604793,/muse/eeg,793.7728937728938,786.1172161172161,879.1941391941392,814.3223443223443,9.569924600604637,8.176145421807423,97.32507577585184,5.387659509437572,12.219248019170951,5.870654828969359,206.74422842643145,12.487715851691632
2025-11-19T15:59:06.604793,/muse/eeg,793.7728937728938,786.1172161172161,879.1941391941392,814.3223443223443,9.686381686043976,8.230953460714494,97.68813873478528,5.448961710354544,12.196284667602095,5.839895290608779,206.240710928602,12.848252205103472
2025-11-19T15:59:06.604793,/muse/eeg,793.7728937728938,786.1172161172161,879.1941391941392,814.3223443223443,9.653908452162508,8.282297563771333,100.13788371967887,5.562266931042657,12.112944485422489,5.72719197472613,205.70298892272243,13.048833320719737
2025-11-19T15:59:06.611788,/muse/eeg,793.7728937728938,786.1172161172161,879.1941391941392,814.3223443223443,10.135101437037962,8.119513997458311,114.388160559406,5.999519941754734,12.055318317673985,5.594375743512989,203.52779465353373,12.708530746356441
2025-11-19T15:59:06.613055,/muse/eeg,793.7728937728938,786.1172161172161,879.1941391941392,814.3223443223443,10.01741032084086,8.097970907786806,122.33196250761017,6.126545432187188,11.914825646317247,5.613251452766537,204.19980119716712,12.51922660302059
2025-11-19T15:59:06.673108,/muse/eeg,789.3406593406594,783.6996336996338,862.6739926739926,800.2197802197802,9.813260386185842,8.083129819133733,125.77814432625209,6.601356897327607,11.759463300059188,5.593847650559984,211.83383774185626,13.381447519299384
2025-11-19T15:59:06.673108,/muse/eeg,788.1318681318681,786.9230769230769,862.2710622710623,793.3699633699634,9.62642628454309,8.094761599449503,136.071963454331,6.597700364400597,11.808801649233708,5.847367210670287,212.59595805903214,13.726980181383135
2025-11-19T15:59:06.673108,/muse/eeg,799.8168498168499,790.1465201465202,880.8058608058608,795.7875457875458,9.680731763487795,8.108077792821106,143.88883801272104,6.4566382989485565,12.71764674702406,6.08572587875226,206.43395071404365,12.96790909995958
2025-11-19T15:59:06.673108,/muse/eeg,805.4578754578755,789.3406593406594,877.5824175824176,801.4285714285714,10.625867619137768,8.470183449852556,90.52683234336939,6.432278200922042,13.20987033477023,5.96717126068674,210.12528232855868,13.172713303416694
2025-11-19T15:59:06.683631,/muse/eeg,799.8168498168499,788.5347985347986,829.6336996336996,809.8901098901099,9.051863262053502,8.690110505397493,131.99898838403124,6.674128637591067,12.565909167186039,6.021087060313368,218.35511879989895,15.443230389701693
2025-11-19T15:59:06.685344,/muse/eeg,805.054945054945,790.1465201465202,824.3956043956044,807.4725274725275,10.095446203527557,8.741338098270703,84.98469144629959,6.0524565710197935,12.16178865646628,6.047841233723474,211.5880937853667,14.450924217544246
2025-11-19T15:59:06.687378,/muse/eeg,805.054945054945,790.1465201465202,824.3956043956044,807.4725274725275,9.587666371628313,8.22567690772932,115.51963637634647,6.829418487511182,12.314571488703713,5.747762185548224,207.87658806326942,15.135060040019278
2025-11-19T15:59:06.688381,/muse/eeg,817.948717948718,790.952380952381,861.4652014652015,811.5018315018315,10.59942053874994,8.289988228253232,93.23267503705438,5.998518418629595,12.050748205434779,6.076241688940714,245.3078127993194,13.674111184034256
2025-11-19T15:59:06.689536,/muse/eeg,807.0695970695971,791.3553113553114,890.4761904761905,796.1904761904763,9.907393878261425,8.727749206252978,87.6082551007242,6.011075296927882,12.444874384350715,6.4064666253783,237.5937563448138,14.170649105576056
2025-11-19T15:59:06.692316,/muse/eeg,803.4432234432235,780.0732600732601,834.0659340659341,804.6520146520147,9.615793588098642,8.216999768388572,94.19358286850141,5.8802784337850245,13.46213061283346,6.6594444859830055,211.28980943920664,13.506040087614238
2025-11-19T15:59:06.692316,/muse/eeg,807.8754578754579,786.5201465201466,876.3736263736264,810.2930402930403,10.06048266529968,8.412384890621828,95.072830860542,6.038344103712127,13.08864268753763,5.937455343748346,225.6224501972489,13.066552321363293
2025-11-19T15:59:06.694349,/muse/eeg,807.8754578754579,786.5201465201466,876.3736263736264,810.2930402930403,10.757273539942432,8.438204430287232,105.05058190729393,6.1094551396395715,12.960203127797051,5.848359277721164,221.4113090031002,12.938953205201981
2025-11-19T15:59:06.714385,/muse/eeg,794.5787545787546,794.981684981685,801.4285714285714,818.7545787545788,11.605329625011557,8.574119673145717,135.16217247927386,6.4132862744746575,13.966008965785093,6.008555490478496,228.7688649161413,12.843070833442692
2025-11-19T15:59:06.714385,/muse/eeg,788.9377289377289,792.5641025641025,782.0879120879121,794.5787545787546,13.805865318659684,8.686165072191764,140.44276300085232,5.9786398730837345,13.697709505165882,5.978573754984342,236.2320792324272,14.57642122766626
2025-11-19T15:59:06.716905,/muse/eeg,807.8754578754579,798.6080586080586,782.4908424908425,808.2783882783883,13.835937805258236,8.749492242762319,164.821426526754,6.186501409617501,12.989244658850096,6.338278672275153,225.61830471688214,13.169397627611605
2025-11-19T15:59:06.717918,/muse/eeg,789.7435897435897,807.4725274725275,841.7216117216118,803.8461538461539,10.556627747507562,8.837694371068334,126.20684637075689,5.923668600812378,13.041176638851347,6.893556646189061,223.87760272939386,13.356555380585428
2025-11-19T15:59:06.718941,/muse/eeg,789.7435897435897,807.4725274725275,841.7216117216118,803.8461538461539,17.960053372973842,9.602590660468802,149.8487571396485,5.930785046437693,13.676204531056914,6.10041901783396,221.13405568083346,13.226968009060299
2025-11-19T15:59:06.720642,/muse/eeg,789.7435897435897,807.4725274725275,841.7216117216118,803.8461538461539,10.494210012871442,9.060968093442563,142.29294831006197,6.246266524767414,12.865425024864113,5.958917079656876,222.58993867921328,13.031449625090819
2025-11-19T15:59:06.721399,/muse/eeg,789.7435897435897,807.4725274725275,841.7216117216118,803.8461538461539,9.983611228997441,8.744296143599495,131.74831141549015,6.298435288084054,13.252414221530262,6.078964417603493,219.64655676722052,13.094212461105567
2025-11-19T15:59:06.721399,/muse/eeg,789.7435897435897,807.4725274725275,841.7216117216118,803.8461538461539,9.557473846974077,8.473425685556762,118.87857709760058,6.37916849674019,13.538855440201518,6.2867631932613754,219.61815624059182,13.186656203478629
2025-11-19T15:59:06.722410,/muse/eeg,789.7435897435897,807.4725274725275,841.7216117216118,803.8461538461539,9.367391542478067,8.329178042975036,106.89507301876498,6.472876133235683,13.65449557272963,6.434131098517338,224.6620193083997,13.22392018372264
2025-11-19T15:59:06.722410,/muse/eeg,789.7435897435897,807.4725274725275,841.7216117216118,803.8461538461539,9.503537524411719,8.381122190092318,99.04984831567035,6.558432759235164,13.572966766275027,6.507619188820799,230.51077964666496,13.176247267402676
2025-11-19T15:59:06.722410,/muse/eeg,789.7435897435897,807.4725274725275,841.7216117216118,803.8461538461539,9.962701185806274,8.66470924965215,97.78256612241623,6.615724539448744,13.322225887348624,6.518462472519443,231.3759982974591,13.09864510636228
2025-11-19T15:59:06.722410,/muse/eeg,789.7435897435897,807.4725274725275,841.7216117216118,803.8461538461539,10.504935019039845,9.114184114920038,107.98031605483597,6.726494085531485,12.996693348937328,6.447817579412646,225.28692041687293,13.080183262769372
2025-11-19T15:59:06.736027,/muse/eeg,808.6813186813187,813.919413919414,863.4798534798535,805.4578754578755,11.807910148764208,10.020439123480376,125.69159405421284,6.559595555620422,13.61315123668064,6.652007405418875,209.43246769784994,13.141840298844066
2025-11-19T15:59:06.737410,/muse/eeg,822.7838827838829,811.0989010989011,821.978021978022,804.2490842490843,12.84909584901985,10.94282040928637,135.37415338949046,6.538959304712,14.302864848461542,6.363055907358744,208.65086195630596,13.189585869662201
2025-11-19T15:59:06.739085,/muse/eeg,828.4249084249085,808.6813186813187,832.4542124542124,814.3223443223443,13.456203869607268,11.642894256022178,155.23915397438822,6.339640992033965,13.362105639732704,6.100891658406178,210.0484038559626,13.486077286768397
2025-11-19T15:59:06.739085,/muse/eeg,828.4249084249085,808.6813186813187,832.4542124542124,814.3223443223443,12.475856518189833,12.297344612266631,179.46267438410314,7.640536585083982,12.660041952519585,5.961590460550019,231.47300196424544,13.009061686807112
2025-11-19T15:59:06.739085,/muse/eeg,828.4249084249085,808.6813186813187,832.4542124542124,814.3223443223443,10.308529504890034,10.712658710917834,132.62882610258634,6.609762723439117,13.857456770187287,6.18029132066758,209.94279640045562,13.213521445329036
2025-11-19T15:59:06.739085,/muse/eeg,772.014652014652,800.2197802197802,833.6630036630037,793.7728937728938,8.1853477655706,10.410374591498897,107.68405581849848,7.693550436990772,37.84948371139184,6.4060789910557245,202.7982406206887,15.227453711421935
2025-11-19T15:59:06.749727,/muse/eeg,772.014652014652,800.2197802197802,833.6630036630037,793.7728937728938,7.764672928864034,9.677655214057186,106.70286151170022,7.503768238416416,33.28606785473075,6.368303437756734,204.9987559127411,14.994317603061324
2025-11-19T15:59:06.750963,/muse/eeg,772.014652014652,800.2197802197802,833.6630036630037,793.7728937728938,7.632196150432716,8.960604315225742,105.49511566668129,7.214690041553161,24.35817721931116,6.45123198640724,206.01418634666086,14.218286394441542
2025-11-19T15:59:06.751973,/muse/eeg,772.014652014652,800.2197802197802,833.6630036630037,793.7728937728938,7.782194569719333,8.456530147673954,104.42065123330892,6.870399129375579,19.94585932810438,6.708752280598495,205.67424185328633,13.70014210325856
2025-11-19T15:59:06.751973,/muse/eeg,772.014652014652,800.2197802197802,833.6630036630037,793.7728937728938,8.1562637838913,8.315113183767753,103.75244387585923,6.532017938242313,21.846656204063553,6.942540914059029,204.45177514450313,13.757389657167312
2025-11-19T15:59:06.751973,/muse/eeg,772.014652014652,800.2197802197802,833.6630036630037,793.7728937728938,8.654528563237356,8.59536217312115,103.63665925982505,6.268078200038413,25.697173772600795,6.908259923479093,203.05379469698045,14.102578420375146
2025-11-19T15:59:06.751973,/muse/eeg,772.014652014652,800.2197802197802,833.6630036630037,793.7728937728938,9.152790880950507,9.247445020518459,104.10327225487514,6.140271300284936,28.018928693801158,6.572197601049208,202.04904346611255,14.368005872687583
2025-11-19T15:59:06.800538,/muse/eeg,785.3113553113553,798.2051282051282,846.1538461538462,813.919413919414,10.074531306409337,10.03440203561744,102.52370069564935,6.548555962181611,34.90623907959401,6.096353739247787,201.74369905644278,18.172034734252144
2025-11-19T15:59:06.802575,/muse/eeg,778.4615384615385,793.7728937728938,864.2857142857143,799.0109890109891,9.838485675326236,10.39176501695803,100.08678756636894,6.637493370735832,30.78999153840812,5.950046779843147,202.7389733956723,14.579182352866024
2025-11-19T15:59:06.804607,/muse/eeg,776.0439560439561,795.7875457875458,870.7326007326008,797.3992673992674,9.676698752197234,11.271877694155794,99.37819649695285,6.940959457327599,29.211068951180014,5.985313884360525,203.53952733846103,14.360968057076196
2025-11-19T15:59:06.804607,/muse/eeg,780.8791208791209,805.8608058608058,884.0293040293041,774.0293040293041,9.981942715783566,12.583306204635914,103.68390369998454,6.65361157271821,28.129891700231713,6.485453213311256,200.14010916268802,17.188758167846547
2025-11-19T15:59:06.804607,/muse/eeg,780.8791208791209,805.8608058608058,884.0293040293041,774.0293040293041,8.776437845798128,10.793796875260963,125.57015838652212,10.107785765784083,27.962815908022634,6.186116127979047,234.06969999033424,17.975498079596186
2025-11-19T15:59:06.808396,/muse/eeg,780.8791208791209,805.8608058608058,884.0293040293041,774.0293040293041,8.26444445944109,10.810687281774568,110.49154930570943,7.378851646086116,26.456257869532706,6.191137855444835,200.3362385943782,15.50343070940703
2025-11-19T15:59:06.809424,/muse/eeg,780.8791208791209,805.8608058608058,884.0293040293041,774.0293040293041,7.8991728699891635,10.484040757773961,108.46647013866233,5.914218959518518,28.32337035902217,6.182651978717584,204.26734357284403,14.576962123788729
2025-11-19T15:59:06.810444,/muse/eeg,780.8791208791209,805.8608058608058,884.0293040293041,774.0293040293041,7.945043491414481,10.464650931233919,108.48825958814855,5.802444363670427,30.143017818827783,6.242129027385766,204.81760915663833,15.177085403537369
2025-11-19T15:59:06.811447,/muse/eeg,780.8791208791209,805.8608058608058,884.0293040293041,774.0293040293041,8.201073609904112,10.497289963441215,107.60712102196331,5.66511489143846,30.74656744769727,6.331787625503413,204.11108766848702,15.748302422866155
2025-11-19T15:59:06.812456,/muse/eeg,780.8791208791209,805.8608058608058,884.0293040293041,774.0293040293041,8.607412475229657,10.569499138313427,106.08147038637483,5.531328556462212,30.01803324433586,6.296966236913853,203.09234332027748,15.752679115310327
2025-11-19T15:59:06.813197,/muse/eeg,780.8791208791209,805.8608058608058,884.0293040293041,774.0293040293041,9.040516296790283,10.650312367057406,104.2421496684593,5.430428795462247,28.654116764443472,6.047431618228005,202.6089972819902,15.582833059921782
2025-11-19T15:59:06.814630,/muse/eeg,780.8791208791209,805.8608058608058,884.0293040293041,774.0293040293041,9.356544836229894,10.709029001106035,102.41409567773356,5.3856772541536495,27.56206180607146,5.7518348806107715,203.1575576516604,15.589469158634135
2025-11-19T15:59:06.822519,/muse/eeg,791.3553113553114,797.3992673992674,923.5164835164835,786.1172161172161,9.658095994704075,11.112671082945884,102.93422830634469,5.385287082521417,27.535192370726904,6.092109601172772,215.47827338679883,16.420770585467004
2025-11-19T15:59:06.822519,/muse/eeg,791.3553113553114,797.3992673992674,923.5164835164835,786.1172161172161,9.068354054205212,11.168568089098855,102.98121742965294,5.508295898719904,28.826625889571183,6.222838484925136,215.54022452468615,15.688558112330533
2025-11-19T15:59:06.822519,/muse/eeg,791.3553113553114,797.3992673992674,923.5164835164835,786.1172161172161,9.150215751785279,11.165508782857227,128.0996987482007,5.726367082036893,31.511072030838573,6.9283199259983865,202.66731614339923,15.820727023994474
2025-11-19T15:59:06.822519,/muse/eeg,791.3553113553114,797.3992673992674,923.5164835164835,786.1172161172161,9.377252702380382,12.76275434028456,114.17677476954935,5.893982660354225,28.39601677064123,5.647254666328871,201.63753441199916,15.54256748162639
2025-11-19T15:59:06.828927,/muse/eeg,786.1172161172161,797.3992673992674,879.1941391941392,776.4468864468864,9.821376021433531,12.860346010891796,107.75643225987157,6.0628716731455095,27.847893255749877,5.801224701749302,210.16554267622132,17.211934295305863
2025-11-19T15:59:06.829938,/muse/eeg,792.967032967033,802.2344322344322,857.8388278388279,789.7435897435897,10.064922309896271,12.659430359397856,103.16398157293484,6.324234135165011,27.924625007123616,6.357347631680652,221.67966916411444,15.791801712082831
2025-11-19T15:59:06.829938,/muse/eeg,792.967032967033,802.2344322344322,857.8388278388279,789.7435897435897,10.54286472661089,12.63362541806104,99.73323103274402,6.429776878542568,27.679359459731153,6.258810596823203,214.94953812173816,15.921950716274617
2025-11-19T15:59:06.832797,/muse/eeg,792.967032967033,802.2344322344322,857.8388278388279,789.7435897435897,10.955501369967667,12.545202997746296,98.3651389776063,6.435914528096985,27.51850773715577,6.064769638319257,208.6856324518003,15.881518240441384
2025-11-19T15:59:06.833380,/muse/eeg,792.967032967033,802.2344322344322,857.8388278388279,789.7435897435897,11.198449189712074,12.420779721889556,99.82944262397837,6.340826909070524,27.487987970882156,5.933119908379638,209.25034897637414,15.763461572999347
2025-11-19T15:59:06.833380,/muse/eeg,792.967032967033,802.2344322344322,857.8388278388279,789.7435897435897,11.226707377951929,12.306500693250305,104.26779393811104,6.163112640907782,27.614642462568355,5.908324875016618,212.59673635637046,15.723569754083636
2025-11-19T15:59:06.833380,/muse/eeg,792.967032967033,802.2344322344322,857.8388278388279,789.7435897435897,11.077413324935712,12.257856945310404,111.02658144758195,5.938427100711896,27.854743682173854,5.957598418829784,211.6782504451107,15.798083161344417
2025-11-19T15:59:06.833380,/muse/eeg,792.967032967033,802.2344322344322,857.8388278388279,789.7435897435897,10.863032019314682,12.323365944170368,118.72910864506508,5.712052516391623,28.11522350196582,6.0412950079478716,206.693237272998,15.87727580077301
2025-11-19T15:59:06.899753,/muse/eeg,788.5347985347986,805.054945054945,821.1721611721612,784.1025641025641,10.944053470372841,12.757055517023947,124.988175121427,5.670711279105299,28.59611664354121,5.991221469101088,200.90886521062316,15.848059589542498
2025-11-19T15:59:06.899753,/muse/eeg,795.3846153846154,801.025641025641,839.3040293040293,801.4285714285714,10.925680442208956,13.054170960077036,133.5168408008949,5.2336941168770945,28.243501670495235,6.288829167575037,209.24450474888295,16.6211730455762
2025-11-19T15:59:06.899753,/muse/eeg,782.4908424908425,801.025641025641,817.5457875457876,780.4761904761905,11.071061626683793,13.46103201358762,126.96252486929617,5.493619152208268,28.710785058128366,6.261344828103517,220.5688933359122,15.622590592730333
2025-11-19T15:59:06.899753,/muse/eeg,785.7142857142858,791.3553113553114,868.7179487179487,795.3846153846154,15.875178931660425,13.372195727608098,114.1501003463229,5.242206857000922,27.512752671843238,6.818100848795938,213.11486034038776,16.51327291015258
2025-11-19T15:59:06.899753,/muse/eeg,781.6849816849817,798.6080586080586,844.5421245421246,781.2820512820513,12.659054214414201,11.861134155560976,98.10217308860032,5.674003248316549,27.70519007168865,6.419711011406534,197.93686791897557,15.615630084162552
2025-11-19T15:59:06.899753,/muse/eeg,796.996336996337,797.3992673992674,865.8974358974359,798.6080586080586,13.604086670569387,12.55813904118395,97.37892662613001,5.359875798220132,27.860841426031513,6.1336563239374575,204.60924963217494,16.23485455746402
2025-11-19T15:59:06.899753,/muse/eeg,796.996336996337,797.3992673992674,865.8974358974359,798.6080586080586,13.334368416105455,13.360668608329943,97.68995581239571,5.554734341485068,27.986229705956138,6.17051405137579,201.8747049188195,16.03896882136952
2025-11-19T15:59:06.909285,/muse/eeg,796.996336996337,797.3992673992674,865.8974358974359,798.6080586080586,12.79435528249051,12.179129925905325,102.77009310204357,5.763438528982434,27.71224410737304,6.3234791738202105,197.28926879824326,15.909621974064603
2025-11-19T15:59:06.909285,/muse/eeg,796.996336996337,797.3992673992674,865.8974358974359,798.6080586080586,15.266861984923835,12.652011471439938,100.31557666804405,6.288426931372161,30.120412817433902,6.42805213335329,200.7690454475751,15.85835218010128
2025-11-19T15:59:06.910293,/muse/eeg,796.996336996337,797.3992673992674,865.8974358974359,798.6080586080586,12.47380637748283,12.125467114539967,99.05291311757725,6.004325275017156,27.407373163395405,6.421880297467567,199.00140590867338,15.85352237465457
2025-11-19T15:59:06.910293,/muse/eeg,796.996336996337,797.3992673992674,865.8974358974359,798.6080586080586,12.618845377829262,12.190051336623068,99.1031725589464,6.205623133727832,27.44553448226918,6.418594473262724,199.56180189328194,15.965807281754172
2025-11-19T15:59:06.911298,/muse/eeg,796.996336996337,797.3992673992674,865.8974358974359,798.6080586080586,12.916360420039487,12.323589211952797,99.97859021925797,6.432479829930303,27.358263400586424,6.414216213327394,198.84378369479123,16.058815356614325
2025-11-19T15:59:06.922926,/muse/eeg,783.6996336996338,792.967032967033,815.934065934066,794.981684981685,13.042311702377177,12.605619858103614,106.15060540549459,6.543354043583626,28.327870224704334,6.43940030826618,213.28870996330204,16.427961697359653
2025-11-19T15:59:06.922926,/muse/eeg,783.6996336996338,792.5641025641025,809.4871794871796,806.6666666666667,13.604144081677966,12.791328899186798,110.44955914897066,7.192802874266999,27.886762257646183,6.443994756328517,207.6774516862916,15.87557684851923
2025-11-19T15:59:06.922926,/muse/eeg,783.6996336996338,792.5641025641025,809.4871794871796,806.6666666666667,14.145069623473638,12.825714720974371,113.27638100651527,7.134866245487567,27.783573473414165,6.383190424796948,201.6713070405023,15.943180949146857
2025-11-19T15:59:06.922926,/muse/eeg,783.6996336996338,792.5641025641025,809.4871794871796,806.6666666666667,16.51118029870735,13.603445648394638,125.80179349443839,6.158744849875829,29.107470691937806,6.318156740396647,206.1708562810062,16.070311562819214
2025-11-19T15:59:06.922926,/muse/eeg,783.6996336996338,792.5641025641025,809.4871794871796,806.6666666666667,12.203514298377069,13.874922205001898,112.49203220920472,6.998603956127346,27.338895165622237,6.213436587616821,206.1157397067124,15.860459295866912
2025-11-19T15:59:06.922926,/muse/eeg,783.6996336996338,792.5641025641025,809.4871794871796,806.6666666666667,12.20557448872356,13.464013783667818,112.14490540322592,6.840393610387395,27.560474807550708,6.2160559350328315,210.61302315617934,15.921415639737456
2025-11-19T15:59:06.922926,/muse/eeg,783.6996336996338,792.5641025641025,809.4871794871796,806.6666666666667,12.246914171179597,12.827019275604131,111.59134255325161,6.601979241710561,27.667590684574954,6.2156032798067,212.6032716074505,16.007807618928037
2025-11-19T15:59:06.927938,/muse/eeg,783.6996336996338,792.5641025641025,809.4871794871796,806.6666666666667,12.34705007424856,12.089877580922947,111.17176771264397,6.3298358731363615,27.69090258454756,6.2373016632585845,212.3116048372978,16.008179642186278
2025-11-19T15:59:06.928963,/muse/eeg,783.6996336996338,792.5641025641025,809.4871794871796,806.6666666666667,12.502433754391411,11.419571453032137,111.17576703259019,6.088004335795784,27.608853701506934,6.322843828345551,210.66650981694818,15.931134535483082
2025-11-19T15:59:06.928963,/muse/eeg,795.3846153846154,804.2490842490843,812.3076923076924,789.3406593406594,12.039239312273127,10.85325528040543,111.83561797231172,6.37190262493853,27.988275484758127,6.845795326213615,208.67849767255228,16.87893588636928
2025-11-19T15:59:06.931137,/muse/eeg,795.3846153846154,804.2490842490843,812.3076923076924,789.3406593406594,12.31300509303659,10.814513270334505,113.32365733815195,6.45640336524272,27.459006199165113,6.646338046148478,206.80342981518038,16.271660301442772
2025-11-19T15:59:06.932135,/muse/eeg,795.3846153846154,804.2490842490843,812.3076923076924,789.3406593406594,12.55735744967535,11.140248760603974,115.54483079745937,6.653194808466014,27.3476446490415,6.342692699134029,206.79783529266282,15.832495948130955
2025-11-19T15:59:06.972739,/muse/eeg,806.2637362637363,807.4725274725275,830.4395604395604,802.6373626373627,12.425688650973056,11.872600608750616,121.74516616937623,6.534085582273212,27.304773548413692,6.18793703655289,206.0466240367624,16.999808792727645
2025-11-19T15:59:06.972739,/muse/eeg,791.7582417582418,807.4725274725275,741.7948717948718,790.1465201465202,12.738638559769386,12.878106745138632,111.59370929859388,7.363937072591068,28.393969675574567,6.2728236884758,244.88257395544463,16.22528232757433
2025-11-19T15:59:06.972739,/muse/eeg,802.6373626373627,806.2637362637363,762.3443223443223,797.8021978021978,12.762814467663853,13.55691224013988,119.86273338105184,7.238781398325259,27.4697648821832,6.634906364413608,225.79944517456966,17.50260914053876
2025-11-19T15:59:06.980299,/muse/eeg,800.2197802197802,809.4871794871796,762.7472527472528,799.4139194139194,12.232853743196543,12.663750501520552,121.47180863778681,6.632033642850374,29.431407974776278,6.289156976908011,217.99855386712107,16.94902285031798
2025-11-19T15:59:06.981310,/muse/eeg,786.5201465201466,811.0989010989011,733.7362637362637,788.5347985347986,12.055885017914491,11.965294773735122,120.21149333018911,7.671282131503688,31.489114634706684,6.265880744063802,229.1103982430785,16.458423047155215
2025-11-19T15:59:06.980299,/muse/eeg,808.6813186813187,810.6959706959707,806.2637362637363,799.4139194139194,14.288065811926929,11.582301302174567,138.27639441107522,5.820575547760509,26.913036793251173,6.278595535021049,230.0835224694228,15.907663175141025
2025-11-19T15:59:06.982436,/muse/eeg,786.5201465201466,811.0989010989011,733.7362637362637,788.5347985347986,13.292745018175868,11.419896057178153,130.03360414398153,5.902355713720851,27.63009525098297,6.232660502563988,212.46431347888137,16.316904084706742
2025-11-19T15:59:06.983549,/muse/eeg,779.2673992673992,813.5164835164835,752.6739926739926,782.893772893773,12.553083841803574,11.183516435749752,133.2546675433386,5.888301791159968,27.60811184514509,6.258225589871971,218.2535589409062,17.02137452381857
2025-11-19T15:59:06.985589,/muse/eeg,779.2673992673992,813.5164835164835,752.6739926739926,782.893772893773,11.96190178756966,10.904939198251462,132.49055363600885,5.916701851977299,27.047774457938004,6.335369753812271,220.85086957868347,16.75034845346972
2025-11-19T15:59:06.985589,/muse/eeg,779.2673992673992,813.5164835164835,752.6739926739926,782.893772893773,11.460613610581925,10.669050762114232,130.33789261926472,6.007002511594256,27.296522567686026,6.433241535811895,221.8927385228528,16.497176218696993
2025-11-19T15:59:06.987061,/muse/eeg,779.2673992673992,813.5164835164835,752.6739926739926,782.893772893773,11.17242947934831,10.528952012815928,127.35456207447245,6.127683845087364,28.15985892572224,6.517501565965406,221.0069294601362,16.385168684921332
2025-11-19T15:59:06.987974,/muse/eeg,779.2673992673992,813.5164835164835,752.6739926739926,782.893772893773,11.184617244704967,10.507836171445273,124.20577165983057,6.238014939942283,28.9940529928984,6.541541395076154,218.6858922109261,16.313340585596862
2025-11-19T15:59:07.005934,/muse/eeg,786.9230769230769,809.4871794871796,781.6849816849817,794.1758241758242,11.837930281370463,10.645546741639219,119.98343684334662,6.715408151108525,30.824151073766227,6.554748970629625,220.00894368772552,17.363105313694213
2025-11-19T15:59:07.007781,/muse/eeg,795.7875457875458,815.1282051282052,728.0952380952381,790.1465201465202,12.522995440076256,10.79575199455368,122.5456648307969,6.530034163498243,31.714033728505356,6.303592490223409,218.96907512792848,16.635891098890404
2025-11-19T15:59:07.008792,/muse/eeg,809.4871794871796,814.3223443223443,782.893772893773,793.7728937728938,13.448673954509477,10.956519476318547,114.60083147437533,6.576733921732183,32.502985242544305,6.080358108768733,216.19427355956762,16.833215214239345
2025-11-19T15:59:07.009797,/muse/eeg,804.6520146520147,810.6959706959707,755.4945054945055,795.3846153846154,13.087011239291229,11.025910866583448,118.62873939259764,6.62639753003267,29.351349630416728,5.9840606189355405,219.01721343864529,16.870123313049337
2025-11-19T15:59:07.011113,/muse/eeg,804.6520146520147,810.6959706959707,755.4945054945055,795.3846153846154,14.332392995783808,11.15369874372077,121.41014136076403,5.946630039158114,28.659901816941886,6.053848489187868,220.21686962594958,17.3295080979884
2025-11-19T15:59:07.011113,/muse/eeg,804.6520146520147,810.6959706959707,755.4945054945055,795.3846153846154,13.900709716859037,11.415789934764273,125.17025042307861,7.546709140014519,30.21115575194272,6.824455935475493,220.92814219969787,17.017002374881955
2025-11-19T15:59:07.012603,/muse/eeg,804.6520146520147,810.6959706959707,755.4945054945055,795.3846153846154,12.152733302585233,11.020086838205092,129.88097562714466,7.88589784040418,31.627441586580044,6.0580865516454265,214.26682090951147,16.820461025648363
2025-11-19T15:59:07.012603,/muse/eeg,804.6520146520147,810.6959706959707,755.4945054945055,795.3846153846154,11.938142323314164,11.076699915436247,129.63125713643308,7.972917642228921,32.737217160112635,6.093465915761347,213.9175945185462,16.650002313652287
2025-11-19T15:59:07.014664,/muse/eeg,804.6520146520147,810.6959706959707,755.4945054945055,795.3846153846154,11.842796374858025,11.162433247700672,129.84011839763087,7.9096292522979255,33.14252237748222,6.104793924722456,213.88952334332154,16.570874176475446
2025-11-19T15:59:07.014664,/muse/eeg,804.6520146520147,810.6959706959707,755.4945054945055,795.3846153846154,11.926417431765108,11.245214232255876,130.85324948869652,7.655154520113582,32.925205450877456,6.07304218776645,214.11468920642764,16.511913562374385
2025-11-19T15:59:07.015970,/muse/eeg,804.6520146520147,810.6959706959707,755.4945054945055,795.3846153846154,12.18452773849734,11.283673073216963,132.7891612210568,7.225574981461217,32.24800205067699,5.977345531864556,214.3681294392802,16.37927078194119
2025-11-19T15:59:07.017269,/muse/eeg,801.025641025641,806.2637362637363,736.5567765567765,813.1135531135532,12.569726500421332,11.21155153431956,135.50281245203547,6.198577525348099,31.369856828168693,5.901540976499259,214.4605753240883,17.436437353436634
2025-11-19T15:59:07.056075,/muse/eeg,818.3516483516484,841.3186813186813,729.3040293040293,796.5934065934066,12.809036276748511,11.533674802157066,136.6862598415694,6.297177842416362,31.926015386362728,9.22293943220626,213.92452669129014,16.888451237423055
2025-11-19T15:59:07.060284,/muse/eeg,818.3516483516484,841.3186813186813,729.3040293040293,796.5934065934066,12.877808135445665,11.254241597345256,138.88765228171945,6.101401734313218,31.596429423135934,8.01739840178324,212.84202079279936,17.568066461956693
2025-11-19T15:59:07.061339,/muse/eeg,818.3516483516484,841.3186813186813,729.3040293040293,796.5934065934066,12.818497929301378,10.853245248113023,138.8289180900149,6.1527870420939355,31.556927000170944,6.7378476056755225,212.32300158621553,17.83050506682197
2025-11-19T15:59:07.062650,/muse/eeg,818.3516483516484,841.3186813186813,729.3040293040293,796.5934065934066,12.924164571315007,11.11110736211447,156.28373672552868,6.708405700079585,33.05299887470463,6.419593251228543,217.1854155843894,17.928214670053805
2025-11-19T15:59:07.063824,/muse/eeg,818.3516483516484,841.3186813186813,729.3040293040293,796.5934065934066,12.55166416159351,12.016351041027763,127.65453148402926,7.828170509650461,33.68128504721179,7.157581435875572,213.2415907861033,16.24872394135367
2025-11-19T15:59:07.063824,/muse/eeg,818.3516483516484,841.3186813186813,729.3040293040293,796.5934065934066,12.409193055427826,11.49460731816525,153.71921475986932,14.084853008900472,31.845267755214643,8.190042564067177,230.25119671298813,16.04516508848293
2025-11-19T15:59:07.066469,/muse/eeg,818.3516483516484,841.3186813186813,729.3040293040293,796.5934065934066,16.152239087972294,12.66909975216317,126.15188176159062,13.932407704342515,30.103194719211338,8.328089284809078,215.1469091868072,16.137949537804822
2025-11-19T15:59:07.068304,/muse/eeg,818.3516483516484,841.3186813186813,729.3040293040293,796.5934065934066,16.341060128491605,12.776241711092531,126.879426298851,7.006350909814514,29.948898787258557,8.099190684669253,216.5133829093448,15.9662960084027
2025-11-19T15:59:07.068304,/muse/eeg,818.3516483516484,841.3186813186813,729.3040293040293,796.5934065934066,14.752243531213253,12.123488509551667,121.5146158753897,6.846907896893345,30.538644191547156,7.861642345622149,212.8437554642196,16.042219141462347
2025-11-19T15:59:07.069662,/muse/eeg,818.3516483516484,841.3186813186813,729.3040293040293,796.5934065934066,14.800927544738208,12.18465031266091,122.70193892685668,6.350827405278176,30.67340817348196,7.565185040916965,212.82678987003487,16.424341777935535
2025-11-19T15:59:07.071219,/muse/eeg,818.3516483516484,841.3186813186813,729.3040293040293,796.5934065934066,14.616359323268679,12.220935802877817,125.57164522631174,5.793434127163396,30.613838375299743,7.343221819639229,212.11263406202474,16.82383542540146
2025-11-19T15:59:07.071219,/muse/eeg,818.3516483516484,841.3186813186813,729.3040293040293,796.5934065934066,14.22648932765009,12.267397373519419,129.54081206479114,5.298860587356756,30.501110287117108,7.300703464868486,211.6077100127187,17.04821417866862
2025-11-19T15:59:07.122029,/muse/eeg,822.7838827838829,842.5274725274726,689.4139194139194,794.981684981685,13.743942844208506,12.390282376851014,130.88898148974977,5.074868999968346,30.696740202322744,7.64632359999543,223.91721948391262,17.27573819795669
2025-11-19T15:59:07.132590,/muse/eeg,826.4102564102565,835.2747252747253,697.0695970695971,785.7142857142858,13.282305011226606,12.778952322339627,138.3778271524758,4.684301583382979,31.124908416912184,7.470340858840936,221.74669273861608,17.520603452354063
2025-11-19T15:59:07.132590,/muse/eeg,820.3663003663004,828.021978021978,668.0586080586081,784.1025641025641,13.027081909237548,13.316663520804767,148.49688740279856,4.77240807334478,31.3067732020547,7.672118108922538,228.14625134801207,16.87340266117208
2025-11-19T15:59:07.134723,/muse/eeg,819.5604395604396,833.6630036630037,706.3369963369963,799.8168498168499,16.590059379466517,16.01770980212372,123.35952833782773,6.322661040408831,30.186635732820477,7.629156740984218,213.0152192164831,15.301009471799574
2025-11-19T15:59:07.136029,/muse/eeg,815.5311355311355,827.2161172161173,737.3626373626374,796.5934065934066,14.591519496991257,14.063442462843675,116.45348330002894,6.95743650769332,30.265797828634035,7.441566582562212,228.6094193438897,14.977731668897864
2025-11-19T15:59:07.136029,/muse/eeg,826.007326007326,822.7838827838829,732.9304029304029,810.2930402930403,15.682927415704697,14.129591355320107,114.6846448302382,8.123473720317717,29.845039771400227,7.34272102326881,226.73126942590224,16.952445226581574
2025-11-19T15:59:07.137038,/muse/eeg,826.007326007326,822.7838827838829,732.9304029304029,810.2930402930403,16.285399820158645,13.98852668725101,113.31058047551556,8.730167582459265,30.205620360732212,7.313687941592985,222.35776463270795,17.81882027399893
2025-11-19T15:59:07.138127,/muse/eeg,826.007326007326,822.7838827838829,732.9304029304029,810.2930402930403,16.85215883077558,13.842829125460225,112.1572154001236,9.222803924403545,30.470605962225875,7.422118251336048,218.9257179186406,18.765149757467043
2025-11-19T15:59:07.138127,/muse/eeg,826.007326007326,822.7838827838829,732.9304029304029,810.2930402930403,13.915218775243389,12.854402321487234,116.33663584484896,4.945453318523351,29.915886631469537,7.51838028217073,212.40447996176334,14.336537083323702
2025-11-19T15:59:07.139151,/muse/eeg,826.007326007326,822.7838827838829,732.9304029304029,810.2930402930403,13.765899447613164,12.446194573938428,114.89335867018879,4.835206835300083,29.72270407905919,7.502576555652593,213.9584187966156,14.604026029749397
2025-11-19T15:59:07.140154,/muse/eeg,826.007326007326,822.7838827838829,732.9304029304029,810.2930402930403,13.558465531169443,12.167365777339414,114.24923724524862,4.717640406023863,29.650664364585072,7.472334004087436,215.5523612974216,14.655075473386896
2025-11-19T15:59:07.140154,/muse/eeg,826.007326007326,822.7838827838829,732.9304029304029,810.2930402930403,13.339492860188926,12.13760056452049,114.82755195701148,4.608542746250233,29.807770541945583,7.496431920978268,217.64829976851905,14.512068465298642
2025-11-19T15:59:07.153141,/muse/eeg,826.007326007326,826.007326007326,708.7545787545788,805.8608058608058,13.176167891152708,12.644961827843174,122.96186942642082,4.534277041761632,29.969621839827052,7.5346715274244715,228.77283172757944,14.995374085036202
2025-11-19T15:59:07.160148,/muse/eeg,808.2783882783883,820.7692307692308,729.7069597069598,799.4139194139194,13.164281394168233,13.070868385421637,121.5114574825465,4.74254550138942,31.070930517760885,7.8012389089818885,221.94856442026196,15.54618642238462
2025-11-19T15:59:07.160148,/muse/eeg,801.025641025641,812.7106227106227,656.7765567765568,799.8168498168499,13.775678236780436,14.466516160775324,134.27162212086546,4.788171725741635,31.178844138512932,8.647590540243932,237.7928645886632,15.433200887245825
2025-11-19T15:59:07.161605,/muse/eeg,816.3369963369963,821.5750915750916,765.1648351648352,804.2490842490843,13.100022195049496,16.131589154837712,141.41999398181167,6.342205902166016,31.497878242211698,7.78412066184977,228.49821708009972,14.164557799221726
2025-11-19T15:59:07.162609,/muse/eeg,816.3369963369963,821.5750915750916,765.1648351648352,804.2490842490843,13.029971493850077,14.434099395189728,136.21536086706254,5.328253019870446,31.14739585389242,8.51733454957936,229.55052453142048,14.859148948660835
2025-11-19T15:59:07.162609,/muse/eeg,816.3369963369963,821.5750915750916,765.1648351648352,804.2490842490843,14.181979568785373,16.858328461756685,142.51753837370728,5.236808153279371,31.088572840123142,7.609058743272768,219.60530208820643,15.794470240225467
2025-11-19T15:59:07.163613,/muse/eeg,816.3369963369963,821.5750915750916,765.1648351648352,804.2490842490843,13.954008388194904,15.845298691098021,144.78534144409076,6.101156736296129,30.804915634751595,7.451033699743508,218.0154621879396,14.552276995654562
2025-11-19T15:59:07.164807,/muse/eeg,816.3369963369963,821.5750915750916,765.1648351648352,804.2490842490843,17.87387314236241,14.812532990786043,137.91691111176712,5.3666314958675585,29.89731087870718,7.313304632397752,226.4090458775561,14.842681491661907
2025-11-19T15:59:07.165830,/muse/eeg,816.3369963369963,821.5750915750916,765.1648351648352,804.2490842490843,18.2922805884059,14.070033885304698,127.77749194249412,5.351929169153987,30.413960568789484,7.461646975356166,237.67439137731,14.625663855143877
2025-11-19T15:59:07.165830,/muse/eeg,816.3369963369963,821.5750915750916,765.1648351648352,804.2490842490843,17.020122915097982,13.362665848455073,113.52800474428382,5.070875134596365,30.57841315525598,7.983470868639992,220.69811258645478,15.07834973383202
2025-11-19T15:59:07.165830,/muse/eeg,816.3369963369963,821.5750915750916,765.1648351648352,804.2490842490843,12.695936919053635,11.03502421661662,113.66063213231658,5.429152863499492,29.711711874545028,7.931300287333908,221.14871452968393,14.80278491309773
2025-11-19T15:59:07.169156,/muse/eeg,816.3369963369963,821.5750915750916,765.1648351648352,804.2490842490843,12.326921706010078,10.935663827548657,117.63615758015075,5.870938969713083,29.772322944712066,8.155314812162192,212.805951447825,14.797704361972642
2025-11-19T15:59:07.206556,/muse/eeg,823.5897435897436,819.5604395604396,722.0512820512821,808.6813186813187,12.011028857703632,11.665483282466305,119.87729320697727,6.35047611229279,29.583896689263334,8.374586612481544,214.38558599884874,14.357137283217938
2025-11-19T15:59:07.210150,/muse/eeg,813.5164835164835,813.1135531135532,685.3846153846154,801.8315018315019,11.877482095449801,13.223811747362973,128.6934065916338,6.954596827041348,30.18683995872152,8.531600084154594,216.1247501958195,14.258657129263678
2025-11-19T15:59:07.211185,/muse/eeg,793.3699633699634,810.6959706959707,703.5164835164835,790.952380952381,11.867582705102038,14.902312473554794,136.93468480003514,6.86152188491592,32.87904022461423,8.249532440619337,207.40841626074172,15.277477225611818
2025-11-19T15:59:07.212189,/muse/eeg,793.3699633699634,810.6959706959707,703.5164835164835,790.952380952381,12.007155756312558,15.924822817213476,155.87394047004818,10.598388335213798,32.06051121376611,7.944669602941847,241.28920287097318,16.594064903104687
2025-11-19T15:59:07.212189,/muse/eeg,793.3699633699634,810.6959706959707,703.5164835164835,790.952380952381,12.430999674956661,17.642209724844953,127.6842415207968,6.40373512056796,30.302257662740562,7.189172683695572,228.22799528474388,14.737904976044902
2025-11-19T15:59:07.216197,/muse/eeg,793.3699633699634,810.6959706959707,703.5164835164835,790.952380952381,12.490098864499037,17.566997173759216,115.69263258778304,5.105804925574937,30.160624233911513,7.2458818764583715,203.67223263282995,14.328016415717883
2025-11-19T15:59:07.217209,/muse/eeg,793.3699633699634,810.6959706959707,703.5164835164835,790.952380952381,12.963447363922462,17.58255689038483,117.54884333162725,4.958444895805937,30.713560668050917,7.377840218013756,205.85429766074242,14.583246442021156
2025-11-19T15:59:07.217209,/muse/eeg,793.3699633699634,810.6959706959707,703.5164835164835,790.952380952381,13.427612512094171,16.904740879567022,118.83196418982085,4.949223561677007,31.581567496743627,7.884114229365653,203.6336676849661,14.906078139728578
2025-11-19T15:59:07.219499,/muse/eeg,793.3699633699634,810.6959706959707,703.5164835164835,790.952380952381,13.776260822199554,15.672356405121596,119.30151343454654,5.111365463576641,32.19259107116163,8.746579575169847,199.67543660509773,14.964815171915198
2025-11-19T15:59:07.221508,/muse/eeg,793.3699633699634,810.6959706959707,703.5164835164835,790.952380952381,13.914863035803613,14.26455187043796,118.83388763478656,5.525339243546975,32.359549509714206,9.678529107681715,196.9222885340023,14.839844193107457
2025-11-19T15:59:07.221508,/muse/eeg,793.3699633699634,810.6959706959707,703.5164835164835,790.952380952381,12.317380482315695,11.78780133739461,115.64825706750375,5.238735737406632,31.657037700052072,8.198835740536188,196.25566264967586,15.291201624119713
2025-11-19T15:59:07.222227,/muse/eeg,793.3699633699634,810.6959706959707,703.5164835164835,790.952380952381,12.103478859759408,11.512606106047077,114.66930339195426,5.585400096711584,31.34830818541909,7.833055485978862,195.7694095458324,15.02813927886724
2025-11-19T15:59:07.268071,/muse/eeg,802.2344322344322,811.9047619047619,716.007326007326,795.7875457875458,11.985244350445823,11.956425411991379,114.40874370015779,5.969618805450134,31.29515365258638,6.816013882325848,198.01797328980348,14.742985919981061
2025-11-19T15:59:07.268071,/muse/eeg,804.2490842490843,809.0842490842491,682.967032967033,788.1318681318681,11.784646095043875,12.585563070373038,114.14161649322287,6.086814116151307,30.860358889422947,5.818215918635721,213.87155795530953,14.552268740557828
2025-11-19T15:59:07.269076,/muse/eeg,804.2490842490843,809.0842490842491,682.967032967033,788.1318681318681,11.538293950126477,14.048565289003871,116.24135278977998,6.092510506859807,30.80669040411169,5.56696298405601,216.8266259321091,15.030254297834908
2025-11-19T15:59:07.274760,/muse/eeg,787.7289377289378,811.0989010989011,645.0915750915751,795.3846153846154,11.462206127899965,15.385491468934358,135.96485575998827,4.8630414974023335,33.477688373131315,6.4205043411227365,212.32188082285504,14.300871329672574
2025-11-19T15:59:07.275775,/muse/eeg,787.7289377289378,811.0989010989011,645.0915750915751,795.3846153846154,11.304607302156498,16.49746575387767,114.8586341882728,5.200700821638048,33.67542779949209,7.943819283460654,205.62533727020684,15.530492855129635
2025-11-19T15:59:07.276781,/muse/eeg,787.7289377289378,811.0989010989011,645.0915750915751,795.3846153846154,12.27995747862762,13.860172504372363,118.59997811429335,4.796633809427492,33.050855300410454,5.8813582856507285,196.3269429382762,14.89037119832917
2025-11-19T15:59:07.277785,/muse/eeg,787.7289377289378,811.0989010989011,645.0915750915751,795.3846153846154,11.346059014156662,13.469861237883357,135.0358112181696,5.358973268197117,33.157855260660796,5.378144603802746,216.7545961475691,14.36836177748961
2025-11-19T15:59:07.278942,/muse/eeg,787.7289377289378,811.0989010989011,645.0915750915751,795.3846153846154,12.003987083699844,13.475806539741013,116.62841384076734,6.605513847163053,33.75758537170401,5.201981913683783,202.4060625284602,15.336462659771824
2025-11-19T15:59:07.279543,/muse/eeg,787.7289377289378,811.0989010989011,645.0915750915751,795.3846153846154,11.765079997518587,13.530178839148832,117.63169110880816,4.894682629001702,31.8614877939675,5.11931640171443,203.9683243943071,14.320423269136898
2025-11-19T15:59:07.281549,/muse/eeg,787.7289377289378,811.0989010989011,645.0915750915751,795.3846153846154,11.768751868417475,13.582281289291164,119.83871011792903,4.897505142177154,32.06774045349716,5.096932282312942,204.7971247010871,14.335357310098885
2025-11-19T15:59:07.281549,/muse/eeg,787.7289377289378,811.0989010989011,645.0915750915751,795.3846153846154,11.821361446879997,13.596110725987678,121.95983182029667,4.892123465904611,32.33352058929084,5.051711251611643,204.05137045786117,14.266960737087942
2025-11-19T15:59:07.282721,/muse/eeg,787.7289377289378,811.0989010989011,645.0915750915751,795.3846153846154,11.927386814520911,13.576920661263314,123.41839253346173,4.883430374691038,32.56170680928638,4.978934068379212,203.3551759843873,14.235936558602987
2025-11-19T15:59:07.295441,/muse/eeg,799.0109890109891,806.6666666666667,700.2930402930403,813.1135531135532,12.272802761918355,13.731955046302566,119.17139816198977,4.840861825176174,34.03797262648731,5.001233080681107,219.03281098894576,15.391042790738856
2025-11-19T15:59:07.295441,/muse/eeg,797.3992673992674,810.2930402930403,678.1318681318681,802.6373626373627,12.33049412496417,13.475285375275174,121.32503059336192,4.884192703535958,33.31987395965743,5.066225716183563,204.34603204002016,14.47442783985474
2025-11-19T15:59:07.296308,/muse/eeg,797.3992673992674,810.2930402930403,678.1318681318681,802.6373626373627,12.767663699693,13.402845028609406,117.79998142960685,4.865044213973952,32.91066289114023,5.307773343317382,203.4317506887175,14.272454773407677
2025-11-19T15:59:07.297559,/muse/eeg,797.3992673992674,810.2930402930403,678.1318681318681,802.6373626373627,16.668603715237484,14.16844937420993,120.26219020835886,5.289470070063946,32.49982802707447,4.817490962009359,208.10651659987252,14.364798512911484
2025-11-19T15:59:07.298555,/muse/eeg,797.3992673992674,810.2930402930403,678.1318681318681,802.6373626373627,11.013492845406814,14.263198146217638,121.90768339752955,4.872818160998429,33.19510972877799,4.779489268067433,210.21084174016448,14.072807901120846
2025-11-19T15:59:07.299855,/muse/eeg,797.3992673992674,810.2930402930403,678.1318681318681,802.6373626373627,12.393394695026984,14.2619014382649,121.47441773642292,4.773494591339341,32.673994961778625,4.736686774413512,212.1566218139344,15.326605626512334
2025-11-19T15:59:07.301009,/muse/eeg,797.3992673992674,810.2930402930403,678.1318681318681,802.6373626373627,12.172771339766348,14.306566578127834,117.90990599723122,5.060195759374828,32.84734981998286,4.786101838676082,211.8648735527271,14.114986924913762
2025-11-19T15:59:07.302275,/muse/eeg,797.3992673992674,810.2930402930403,678.1318681318681,802.6373626373627,11.66652945800435,14.066136221090973,116.33011909787535,5.139683210594635,33.06924374513045,4.80735706588521,210.3718696670655,13.993868625475987
2025-11-19T15:59:07.302275,/muse/eeg,797.3992673992674,810.2930402930403,678.1318681318681,802.6373626373627,11.15773677564988,13.855103362064012,120.28087127066499,5.289058917130879,33.18911429126463,4.809791942315517,209.0629389187413,13.918831572881235
2025-11-19T15:59:07.302275,/muse/eeg,797.3992673992674,810.2930402930403,678.1318681318681,802.6373626373627,10.733869445894442,13.745044003719201,119.45245122765604,5.341539098120624,33.25625906075873,4.776624575225775,208.24985134771887,13.998135950146196
2025-11-19T15:59:07.302275,/muse/eeg,797.3992673992674,810.2930402930403,678.1318681318681,802.6373626373627,10.5409119871489,13.793926489112305,118.06519628823895,5.315825399062072,33.26985718213717,4.693280512596006,207.62603956585315,14.198019897653166
2025-11-19T15:59:07.302275,/muse/eeg,797.3992673992674,810.2930402930403,678.1318681318681,802.6373626373627,10.970812452726989,14.098606892707497,116.50158409171014,5.391262615425518,33.263660129906285,4.618807159493418,209.01834467337574,14.258425333674511
2025-11-19T15:59:07.338369,/muse/eeg,793.7728937728938,818.7545787545788,678.5347985347986,792.1611721611722,11.842906664978694,14.433588306426444,117.50927681012118,4.80496366689176,33.01437672829216,4.817556762639747,208.93978440126756,14.142310311130244
2025-11-19T15:59:07.339884,/muse/eeg,784.1025641025641,816.7399267399268,708.7545787545788,791.7582417582418,12.058432482095697,14.847202739275343,120.11751012072389,4.727441680661686,32.87246816667691,4.724433082864067,219.91605319954527,14.082866777726947
2025-11-19T15:59:07.341185,/muse/eeg,779.6703296703297,818.7545787545788,698.2783882783883,794.981684981685,13.239347911940417,15.203247918654903,120.21276338043043,4.808262135031039,32.551306480732876,4.8458747353491844,213.7288067153709,13.951708229146654
2025-11-19T15:59:07.341185,/muse/eeg,788.5347985347986,822.7838827838829,685.7875457875458,786.1172161172161,13.945581507263265,14.745385479033956,131.5574974680668,5.004493095807697,32.434574995786285,4.753666515615773,205.09982730030544,14.283386276602432
2025-11-19T15:59:07.346141,/muse/eeg,788.5347985347986,822.7838827838829,685.7875457875458,786.1172161172161,13.733378963966997,14.20942989098469,131.99281675126485,4.709592211918211,33.023800415057224,4.778668005455833,206.08628567645405,13.980635997110824
2025-11-19T15:59:07.348602,/muse/eeg,785.7142857142858,813.919413919414,723.6630036630037,802.2344322344322,15.560080116729967,14.3046859614485,159.0068795103056,4.838747362693171,34.16202286043002,5.1542033657083905,242.04963103655882,15.51296816439989
2025-11-19T15:59:07.349601,/muse/eeg,791.7582417582418,811.5018315018315,714.3956043956044,793.7728937728938,10.400146103510593,14.005342618740347,120.94718648329267,4.8671969988699715,33.54583074082451,5.424320472211523,200.37557328931155,14.308524313144154
2025-11-19T15:59:07.350727,/muse/eeg,767.5824175824176,807.4725274725275,761.5384615384615,778.0586080586081,9.672257925848097,13.88342490699668,121.37868882704555,4.925463592004182,32.80996157934069,5.571417332606257,205.81329894603715,13.995958372589218
2025-11-19T15:59:07.353922,/muse/eeg,753.4798534798535,796.996336996337,767.5824175824176,792.1611721611722,9.037375462085786,13.950312519173224,118.80783252019717,5.001932606639867,34.60943030284338,6.178949330638206,201.97702186905997,14.005246577436754
2025-11-19T15:59:07.354924,/muse/eeg,753.4798534798535,796.996336996337,767.5824175824176,792.1611721611722,8.659273153102372,13.955333107213383,123.79756035465692,5.000271332162036,33.58257074323631,5.3736788025416855,199.40470298269042,13.941260539343803
2025-11-19T15:59:07.356073,/muse/eeg,753.4798534798535,796.996336996337,767.5824175824176,792.1611721611722,8.489192734509516,13.955532054522031,126.78089003336297,4.954218414039738,32.43724916263817,5.264020370506175,203.01038949438617,13.871502946871761
2025-11-19T15:59:07.357241,/muse/eeg,753.4798534798535,796.996336996337,767.5824175824176,792.1611721611722,8.59198317927822,13.914979101148166,129.89710728360836,4.873492403971275,32.289758393121396,5.703278420778226,209.91553544588447,13.886024445877194
2025-11-19T15:59:07.388075,/muse/eeg,754.6886446886447,795.3846153846154,749.8534798534798,787.3260073260074,9.13246609465254,13.841637369237452,133.66690707788374,4.812145571691764,33.068492267634184,5.977682015349942,223.40781134554277,14.191328100802274
2025-11-19T15:59:07.396096,/muse/eeg,744.6153846153846,786.1172161172161,784.9084249084249,778.8644688644689,9.569977286575662,13.918789256608274,131.93142885243316,4.736114945970015,32.67013096693927,5.307846448365726,209.35079806880782,15.129163270036525
2025-11-19T15:59:07.398322,/muse/eeg,744.6153846153846,786.1172161172161,784.9084249084249,778.8644688644689,10.470988927886228,13.862748235597504,130.78905469439044,4.815118622435452,33.18184698460807,5.5607428391488085,209.23971058468732,14.877979506312167
2025-11-19T15:59:07.398322,/muse/eeg,738.1684981684982,782.4908424908425,816.7399267399268,784.9084249084249,9.668735162791357,13.832078441501707,97.25216855409185,4.981671694934058,32.345843833769294,5.540924456760923,206.79141372729345,13.972324735919894
2025-11-19T15:59:07.400604,/muse/eeg,727.2893772893773,781.6849816849817,758.3150183150184,750.2564102564103,10.52041331087748,13.88388939128325,120.9377476770065,6.156404563630309,33.32991378662315,5.558180513003822,205.4070393772384,16.601824416682902
2025-11-19T15:59:07.401392,/muse/eeg,720.8424908424909,780.0732600732601,753.0769230769231,756.7032967032967,8.8376440945033,14.133252004329448,114.42246405142401,6.032877588740982,32.78494025007477,5.552767629612553,201.42157272764194,14.18851384370599
2025-11-19T15:59:07.403310,/muse/eeg,733.7362637362637,780.4761904761905,781.2820512820513,776.8498168498169,7.295492168858176,13.891856008176523,118.12974665728454,7.063176074299897,31.894728149588346,5.295964127287681,213.36947350310794,16.667074885883377
2025-11-19T15:59:07.404321,/muse/eeg,732.5274725274726,777.2527472527473,815.934065934066,783.2967032967033,9.633382193865922,13.90275738770029,126.24623752220904,5.161525481680656,32.105435711659325,5.2498936326172005,220.36044495293748,18.14100009382516
2025-11-19T15:59:07.406771,/muse/eeg,728.4981684981685,776.4468864468864,757.5091575091575,770.8058608058608,8.913883410897748,13.83775081944152,122.48069926418827,5.357595615038998,32.05803033632745,5.291208255075432,200.11364362092468,15.25804858737741
2025-11-19T15:59:07.408781,/muse/eeg,722.4542124542124,778.0586080586081,767.985347985348,751.8681318681319,8.512899940519102,14.216197105916118,119.90335759436577,5.256572250920711,31.844309228809475,5.53505917262816,206.8260391939767,14.288231027723747
2025-11-19T15:59:07.410077,/muse/eeg,740.989010989011,780.8791208791209,811.5018315018315,776.4468864468864,8.51180627361456,13.750163292739655,168.28107273546374,4.794558609720447,33.06624269572702,5.3046208262802255,269.7563837639841,16.255667872011987
2025-11-19T15:59:07.412213,/muse/eeg,740.989010989011,780.8791208791209,811.5018315018315,776.4468864468864,7.182954120163242,13.29917569099797,108.30760822718614,5.176089906797138,32.89793966945871,5.217069842586592,209.72575820152767,15.298656669630669
2025-11-19T15:59:07.483227,/muse/eeg,777.6556776556777,792.5641025641025,664.0293040293041,809.4871794871796,7.644123685130926,13.368801222792774,112.0371371181706,6.013786311805621,38.81934884807305,5.638341112850444,250.42920619675357,18.925071761857588
2025-11-19T15:59:07.483227,/muse/eeg,765.9706959706959,805.054945054945,656.7765567765568,802.6373626373627,7.384756549821804,13.52863320373166,116.06005117150627,6.082560096503422,33.24589524794109,6.557126374124214,247.9962650442177,15.057423557282021
2025-11-19T15:59:07.483227,/muse/eeg,765.9706959706959,805.054945054945,656.7765567765568,802.6373626373627,7.642867781830272,13.994367295883375,77.71434447748635,7.253543485012188,33.07471854792765,5.504810751512352,251.08181053063288,15.296674205442859
2025-11-19T15:59:07.483227,/muse/eeg,765.9706959706959,805.054945054945,656.7765567765568,802.6373626373627,7.617922677683418,13.686016932530944,131.31286966625268,6.748776389174527,35.312318070009,5.320117844628248,208.883773565085,16.54735980698119
2025-11-19T15:59:07.483227,/muse/eeg,765.9706959706959,805.054945054945,656.7765567765568,802.6373626373627,8.70626830729337,14.168785038529567,136.15159345538717,5.703910085625049,36.16866829156542,5.551648692382864,212.68223394367254,17.210855611674877
2025-11-19T15:59:07.483227,/muse/eeg,765.9706959706959,805.054945054945,656.7765567765568,802.6373626373627,8.565033224292867,13.907219776260556,101.76213875724908,5.543511175472274,36.73699653050688,6.123724317682217,228.39364404754633,18.294262827549808
2025-11-19T15:59:07.483227,/muse/eeg,765.9706959706959,805.054945054945,656.7765567765568,802.6373626373627,11.515948096895436,13.721919908458242,135.43816404372794,5.425550035965667,36.78784487331439,6.456626774229946,228.95964997490813,18.32103808157622
2025-11-19T15:59:07.483227,/muse/eeg,765.9706959706959,805.054945054945,656.7765567765568,802.6373626373627,11.714524510303647,14.10947785469523,100.74947150939387,5.798606519675099,36.095806459099485,6.429366581318973,227.06322234638526,17.62183463585999
2025-11-19T15:59:07.496679,/muse/eeg,765.9706959706959,805.054945054945,656.7765567765568,802.6373626373627,12.230455650803655,14.309496534732842,102.47447105871592,5.869494802540906,35.15622567841991,6.363820282687054,226.9094083532795,16.863829722738842
2025-11-19T15:59:07.497695,/muse/eeg,765.9706959706959,805.054945054945,656.7765567765568,802.6373626373627,10.329022266481621,15.178734751817869,105.83199925869003,5.363287155296801,34.84278305940883,5.873748849862395,226.3033178054143,16.724680320010805
2025-11-19T15:59:07.498701,/muse/eeg,765.9706959706959,805.054945054945,656.7765567765568,802.6373626373627,9.05626233676379,16.766649628570114,111.37930957199373,5.58712825758436,35.4669060386009,5.662709533480987,222.45850765078157,16.57109391817056
2025-11-19T15:59:07.499809,/muse/eeg,765.9706959706959,805.054945054945,656.7765567765568,802.6373626373627,9.800468764320428,16.030014741395696,155.53761425374944,6.533772932128012,35.190189642787004,5.752436992351198,227.8488524712943,16.741946611046604
2025-11-19T15:59:07.501024,/muse/eeg,778.0586080586081,800.6227106227107,668.8644688644689,814.7252747252747,10.069034435947078,17.246371939334313,149.4813749672653,5.884886040752768,37.47829291108557,5.51706180967477,228.9040639356042,19.400681661599585
2025-11-19T15:59:07.502031,/muse/eeg,799.0109890109891,810.2930402930403,576.996336996337,813.5164835164835,9.037128095462332,17.22051795370318,160.05392906467011,5.746067754537496,42.08758890472948,6.545303508084487,282.76836497349666,18.976304060206914
2025-11-19T15:59:07.503036,/muse/eeg,808.6813186813187,817.5457875457876,567.7289377289377,825.2014652014652,7.877333499280882,17.019178802308474,179.66483390076,5.309100247913879,41.919640724613956,7.40202309940504,264.9216001950936,20.29935016464532
2025-11-19T15:59:07.505211,/muse/eeg,806.6666666666667,819.96336996337,564.1025641025641,805.054945054945,7.419964090418345,15.369228942882987,166.13484260937463,5.754212565597266,39.13531619782262,7.1001010357894945,247.33381011540934,18.13919953822517
2025-11-19T15:59:07.506216,/muse/eeg,806.6666666666667,819.96336996337,564.1025641025641,805.054945054945,7.149411159527165,15.663778418712404,190.7644014188208,5.924518077455392,37.14378149308762,6.403692104472997,226.45885175960905,17.320625298793573
2025-11-19T15:59:07.507658,/muse/eeg,806.6666666666667,819.96336996337,564.1025641025641,805.054945054945,7.712942458440438,14.706289167774369,160.2002432050321,5.700169697811193,38.30117850643878,6.309450588536677,243.85985192379786,18.155322347020714
2025-11-19T15:59:07.507658,/muse/eeg,806.6666666666667,819.96336996337,564.1025641025641,805.054945054945,8.702599787117302,13.496175400303873,121.23925524841508,5.827016976099275,39.631205054517125,6.633133886565895,249.29070690300253,17.61549010714395
2025-11-19T15:59:07.507658,/muse/eeg,806.6666666666667,819.96336996337,564.1025641025641,805.054945054945,11.1249378043983,13.211699195247345,115.57407536193162,6.718470801455459,41.031604979313116,7.003877939838329,250.7991544684648,17.85014562061676
2025-11-19T15:59:07.507658,/muse/eeg,806.6666666666667,819.96336996337,564.1025641025641,805.054945054945,13.702324712698019,13.362143740651973,142.16305675534852,9.25733663295645,42.983214477238064,7.4314483897149595,359.68578515719474,21.56866823991445
2025-11-19T15:59:07.507658,/muse/eeg,806.6666666666667,819.96336996337,564.1025641025641,805.054945054945,10.52522647512452,13.741976146106328,74.06557383556907,7.617612523500207,40.64265359633764,7.47249723631664,338.44093068592963,19.938909242426398
2025-11-19T15:59:07.507658,/muse/eeg,806.6666666666667,819.96336996337,564.1025641025641,805.054945054945,8.467059184528257,14.05153470398087,73.62066475866935,5.445716861399154,38.95867242330438,7.813404284262878,244.7242341042924,15.967035758208318
2025-11-19T15:59:07.516404,/muse/eeg,806.6666666666667,819.96336996337,564.1025641025641,805.054945054945,8.878128417288966,15.115621727989764,110.94658948038897,5.433257890671074,38.37255980843771,7.145075560637913,203.83025404784397,15.689786246653812
2025-11-19T15:59:07.544499,/muse/eeg,803.4432234432235,819.96336996337,581.025641025641,809.8901098901099,9.243607817930403,16.68386971635148,159.51139189813205,5.662915746423179,37.915299639338805,6.585107070631068,175.81457256774635,15.997323210880745
2025-11-19T15:59:07.545700,/muse/eeg,801.4285714285714,819.1575091575091,572.967032967033,804.2490842490843,9.362928404885299,18.099922844153735,216.58128439233937,5.599046413073312,37.735976775059,6.656908504168365,193.30533093239507,16.553795042223918
2025-11-19T15:59:07.548009,/muse/eeg,795.3846153846154,821.5750915750916,551.2087912087912,793.3699633699634,8.912852818388712,19.34727390537973,268.8150728796744,5.321606236754835,37.75992281327719,7.444337826724215,253.13836651550884,18.016883454294184
2025-11-19T15:59:07.549496,/muse/eeg,795.3846153846154,821.5750915750916,551.2087912087912,793.3699633699634,8.451872957750322,19.133168974897988,193.59412391477815,5.482020245825609,39.784558403073675,7.725987444860699,233.37239782281475,17.683333207681592
2025-11-19T15:59:07.549496,/muse/eeg,791.3553113553114,817.5457875457876,546.3736263736264,793.3699633699634,9.725257995908951,14.132978924384835,66.72493793001526,7.389733507176199,38.447018930155416,6.662246286925994,185.07422349826538,14.663246143876659
2025-11-19T15:59:07.549496,/muse/eeg,792.5641025641025,816.7399267399268,565.3113553113553,798.6080586080586,9.461688313125538,14.022019931497809,65.89835195043231,7.21644424955128,39.15654623472179,6.705588665307495,179.1505352591,14.84992230554318
2025-11-19T15:59:07.549496,/muse/eeg,803.8461538461539,821.978021978022,529.047619047619,786.1172161172161,8.940512865220793,13.692183402105304,62.4770796868778,6.531187784018491,41.085470589115914,6.9423150197534,184.9162363574563,14.753909593246092
2025-11-19T15:59:07.549496,/muse/eeg,798.6080586080586,818.7545787545788,504.87179487179486,784.5054945054945,9.021913634175233,13.531220355421548,61.78223316047447,5.998968058581344,40.115250018790555,6.750297774735465,187.0209368578841,14.984516777764416
2025-11-19T15:59:07.549496,/muse/eeg,798.6080586080586,818.7545787545788,504.87179487179486,784.5054945054945,8.90710692041338,13.311395468503868,62.745917541085205,5.777722997164008,39.39553323028114,6.732708865862314,181.62115141776584,15.247953728845886
2025-11-19T15:59:07.564534,/muse/eeg,805.4578754578755,830.0366300366301,535.8974358974359,791.3553113553114,8.387501201889082,12.622182657183096,63.12183208338709,5.48942506116094,39.08592687515826,7.327189526600227,186.44394865198117,16.3691995724799
2025-11-19T15:59:07.565881,/muse/eeg,805.4578754578755,830.0366300366301,535.8974358974359,791.3553113553114,8.233117776766456,12.625179252287412,65.70170192866468,5.707207876176966,38.109708030755414,7.044822631874002,190.75420871738504,16.412063399840576
2025-11-19T15:59:07.566741,/muse/eeg,805.4578754578755,830.0366300366301,535.8974358974359,791.3553113553114,8.048979319533448,12.83271886367023,66.07330840718495,6.219260491475515,37.45742641524427,6.76847629677523,191.3579214314257,15.813955015195798
2025-11-19T15:59:07.582201,/muse/eeg,796.996336996337,826.007326007326,524.6153846153846,805.8608058608058,7.751602944421622,13.574650206877314,66.21731890641675,6.837723221250783,39.13869724510804,6.899397589849867,184.87883950547672,16.135651544137364
2025-11-19T15:59:07.582201,/muse/eeg,803.040293040293,831.6483516483516,596.7399267399268,815.1282051282052,7.635179987616156,13.866042112055988,78.04894680400578,6.670500739181491,39.68457871243645,6.826644352205832,215.63411308666377,15.485655617190913
2025-11-19T15:59:07.583325,/muse/eeg,802.2344322344322,833.2600732600733,676.5201465201466,805.4578754578755,8.67230647564771,14.58746975519503,88.94821320239589,7.698501009184479,41.378745464243316,7.011501182517889,261.5768831872554,14.215085367338455
2025-11-19T15:59:07.584206,/muse/eeg,797.3992673992674,827.6190476190476,641.0622710622711,796.5934065934066,8.376251620142623,14.979806829778768,75.83361031761734,10.125341491342741,40.88079789897417,7.653986938903667,203.4856769406606,18.19047979544823
2025-11-19T15:59:07.585261,/muse/eeg,797.3992673992674,827.6190476190476,641.0622710622711,796.5934065934066,9.35737875341442,13.899643141440595,72.24220530803954,6.944594282613548,37.31060551367388,7.383839838112568,199.41054363909825,18.037197043569257
2025-11-19T15:59:07.585261,/muse/eeg,797.3992673992674,827.6190476190476,641.0622710622711,796.5934065934066,9.275014722802792,12.733646304778672,74.85341130704718,5.5625029199118625,36.60095327243113,7.195351405811744,211.82901834648314,16.890108556195692
2025-11-19T15:59:07.587576,/muse/eeg,797.3992673992674,827.6190476190476,641.0622710622711,796.5934065934066,8.899106023860732,12.599127099852637,74.31644583905612,5.549453017602534,36.338430174712016,7.030168697927971,229.322953670029,16.31840921527708
2025-11-19T15:59:07.588086,/muse/eeg,797.3992673992674,827.6190476190476,641.0622710622711,796.5934065934066,8.461033772370346,12.464679982977465,74.86401878890928,5.608791933560974,36.52222912423827,6.920951487027784,238.0272499923435,15.8255333621293
2025-11-19T15:59:07.589121,/muse/eeg,797.3992673992674,827.6190476190476,641.0622710622711,796.5934065934066,8.130187961076162,12.337975958568663,76.18104831115986,5.719897732848123,37.0669845684524,6.893100501947192,237.39043070789938,15.578597837380599
2025-11-19T15:59:07.589121,/muse/eeg,797.3992673992674,827.6190476190476,641.0622710622711,796.5934065934066,8.078183581200648,12.230133811038304,77.93750610599045,5.838149471365821,37.697203413117734,6.935916741613954,231.64222451239516,15.355559559719495
2025-11-19T15:59:07.589121,/muse/eeg,797.3992673992674,827.6190476190476,641.0622710622711,796.5934065934066,8.408680939830514,12.159092126059495,79.90656017949453,5.913143905640611,38.11506856159172,7.0248927600244375,224.98563336195332,15.147464152845693
2025-11-19T15:59:07.589121,/muse/eeg,797.3992673992674,827.6190476190476,641.0622710622711,796.5934065934066,9.100995686552888,12.14783752706775,82.00874934193959,5.910140348629408,38.171335347753015,7.130567310612625,220.48766960448984,15.296201362861234
2025-11-19T15:59:07.656702,/muse/eeg,794.1758241758242,821.978021978022,615.2747252747253,790.5494505494506,10.28635815748198,11.9986341860594,87.82118434388585,5.728402775704357,37.966993429943344,7.036377249287064,215.6245942357626,15.519246629403376
2025-11-19T15:59:07.656702,/muse/eeg,778.0586080586081,824.3956043956044,628.1684981684982,794.1758241758242,11.607969045190167,12.227517993313413,89.31377201507428,5.658316574737382,38.069811264019755,7.108136088692472,218.67848760506516,16.568509174641278
2025-11-19T15:59:07.656702,/muse/eeg,789.3406593406594,828.021978021978,661.6117216117216,799.0109890109891,12.168074753725808,12.57983933412637,86.71533624241829,5.466089586178365,36.322346107304725,7.188117997342235,239.1375213948698,17.112930755138496
2025-11-19T15:59:07.656702,/muse/eeg,784.9084249084249,824.7985347985348,591.5018315018315,792.967032967033,13.054424842770299,12.490990777643017,92.65256839049421,6.084585341994655,35.08486480644524,7.254594304343868,218.1063909769848,14.903575819888466
2025-11-19T15:59:07.656702,/muse/eeg,787.7289377289378,826.007326007326,615.6776556776557,789.3406593406594,11.805099608533162,13.227422475801594,90.26705452300543,7.291655058577504,35.50860566870354,6.958839308555646,227.77877873806136,15.023748035809897
2025-11-19T15:59:07.656702,/muse/eeg,801.4285714285714,826.007326007326,649.5238095238095,794.981684981685,7.800295860459943,14.399989441651844,98.4046706101359,6.723453137919088,37.39717042850401,6.721802304749474,244.08332063951764,15.100682736104265
2025-11-19T15:59:07.663828,/muse/eeg,809.0842490842491,820.7692307692308,645.8974358974359,809.4871794871796,7.649344261817552,14.241195019345131,99.20222469010076,6.184745420276658,38.19484979957487,6.931866266270104,230.5069310156884,15.731715961546861
2025-11-19T15:59:07.663828,/muse/eeg,809.0842490842491,820.7692307692308,645.8974358974359,809.4871794871796,6.83638413112384,13.824549496400348,83.95477909713111,5.923924119114024,39.237831492545,6.921769395613363,234.3264612258275,15.320550602406088
2025-11-19T15:59:07.665851,/muse/eeg,813.1135531135532,823.992673992674,582.6373626373627,804.6520146520147,8.839974462748591,13.645389923669676,83.98647823907824,5.789876629816723,38.22984706496559,6.816600885984875,251.28330743571232,14.894234655997284
2025-11-19T15:59:07.666332,/muse/eeg,809.8901098901099,827.2161172161173,616.080586080586,792.1611721611722,10.250681380467107,12.903680091343315,86.7241978146588,5.731883561743163,38.06746672727155,7.004053209277144,244.43413642177464,16.61460960849577
2025-11-19T15:59:07.667368,/muse/eeg,805.4578754578755,832.8571428571429,680.5494505494506,789.7435897435897,17.288584850319623,12.225434362585258,101.75960204146108,6.134328180012808,36.76367713686139,7.5202072218058165,223.41785751682826,17.410107560333984
2025-11-19T15:59:07.668417,/muse/eeg,798.6080586080586,837.2893772893773,643.0769230769231,800.6227106227107,13.151179926755868,11.584020328929277,107.95805253018648,5.408264550568697,38.89848636080059,7.616097070308742,225.70360285481974,16.175280877547646
2025-11-19T15:59:07.689449,/muse/eeg,796.1904761904763,835.2747252747253,650.7326007326008,794.1758241758242,11.118240625937162,11.435375933188304,95.97744889728244,5.733360338157112,38.49541996664158,6.452702942711335,213.97629371722672,15.762121979570175
2025-11-19T15:59:07.690717,/muse/eeg,794.981684981685,829.2307692307693,635.8241758241759,780.4761904761905,11.833409382003778,11.470108291634837,91.85821574478682,6.4174484046612665,37.484167882697925,6.605393731205286,247.28698374622263,16.854889296367734
2025-11-19T15:59:07.694746,/muse/eeg,794.981684981685,829.2307692307693,635.8241758241759,780.4761904761905,9.996777960716976,12.029793870574693,87.26682992152303,6.481888244925283,37.35242128932725,6.931107456101417,251.77479470960768,16.140167859229837
2025-11-19T15:59:07.696983,/muse/eeg,794.981684981685,829.2307692307693,635.8241758241759,780.4761904761905,6.133988377016525,11.89722663097297,122.1018993200984,8.238822515947799,37.92539384741187,6.778407503145607,216.1863097008639,16.43397944568038
2025-11-19T15:59:07.698322,/muse/eeg,794.981684981685,829.2307692307693,635.8241758241759,780.4761904761905,6.019501343386125,12.84428222946963,147.99768711565227,5.28201728433827,39.07361108206251,6.863679211076694,220.42972350949069,16.73879649273865
2025-11-19T15:59:07.699556,/muse/eeg,794.981684981685,829.2307692307693,635.8241758241759,780.4761904761905,5.067538939912685,12.562325123378798,150.66536714616598,5.947248996809925,43.57191402675978,6.485893971466116,224.15625562977854,16.686511574872682
2025-11-19T15:59:07.700432,/muse/eeg,794.981684981685,829.2307692307693,635.8241758241759,780.4761904761905,8.429134085559738,12.016946171285339,98.55643238829792,5.566773415690815,39.585289711098646,6.594890235564507,213.42315270101926,17.178876372172954
2025-11-19T15:59:07.700432,/muse/eeg,794.981684981685,829.2307692307693,635.8241758241759,780.4761904761905,10.673784773163808,12.262293064808475,96.74820449533246,5.589368044441745,38.1982886079188,6.595297409518791,213.54582500801908,17.205775276409028
2025-11-19T15:59:07.700432,/muse/eeg,794.981684981685,829.2307692307693,635.8241758241759,780.4761904761905,12.880577024464062,12.441560185292397,94.91013638338845,5.6796759613917835,37.05232092941126,6.607407538954311,213.9442437559523,16.972851796841248
2025-11-19T15:59:07.703676,/muse/eeg,794.981684981685,829.2307692307693,635.8241758241759,780.4761904761905,14.422514329621192,12.519492739129571,93.64717889619791,5.832602102645461,36.619659740643854,6.636845420858398,214.7195008627511,16.812789064514728
2025-11-19T15:59:07.704689,/muse/eeg,794.981684981685,829.2307692307693,635.8241758241759,780.4761904761905,14.81212466136277,12.485953285629147,93.56761226494348,6.027130905874519,35.97514035161325,6.711598476189822,215.48378693010702,16.745374883786894
2025-11-19T15:59:07.704689,/muse/eeg,794.981684981685,829.2307692307693,635.8241758241759,780.4761904761905,13.86204044337044,12.359538143764162,95.10439272312863,6.227551234828886,35.32483539219663,6.835522184965986,215.63324010567092,16.563396105454764
2025-11-19T15:59:07.709033,/muse/eeg,805.4578754578755,829.2307692307693,668.0586080586081,790.1465201465202,12.228535363036995,12.024186213955055,92.10428652144161,6.581520629268951,36.80110700037634,7.007676129100318,222.30989080246897,16.244060684168907
2025-11-19T15:59:07.710734,/muse/eeg,817.5457875457876,847.3626373626374,641.4652014652015,801.025641025641,9.457909924717766,11.86368911728184,99.31312871509735,6.762903984751526,42.32381812141949,8.017557708151873,215.40261113326628,16.645607498661654
2025-11-19T15:59:07.710734,/muse/eeg,835.6776556776557,875.1648351648352,629.7802197802198,789.7435897435897,7.051409837802998,12.324861543096265,106.02109134240084,6.615759651549993,47.31033433918532,12.039206854871585,217.13558978379473,17.071597711031608
2025-11-19T15:59:07.710734,/muse/eeg,819.96336996337,877.1794871794872,552.4175824175825,788.5347985347986,4.203376461791232,12.745727321747973,138.45257996880244,6.117912652355991,34.59282496824177,8.679079978358185,255.9897562134734,17.61641808292256
2025-11-19T15:59:07.713986,/muse/eeg,819.96336996337,877.1794871794872,552.4175824175825,788.5347985347986,8.637738720894049,12.797099241655005,114.4980162624694,5.896402252760082,28.868608608833085,6.651694292035216,242.8078506397369,17.266367851277813
2025-11-19T15:59:07.715985,/muse/eeg,819.96336996337,877.1794871794872,552.4175824175825,788.5347985347986,13.583926951672517,12.720103890531082,121.62888748793678,4.810075065325692,30.95148340280419,7.558809679483955,228.32540277886937,17.853115689720426
2025-11-19T15:59:07.717026,/muse/eeg,819.96336996337,877.1794871794872,552.4175824175825,788.5347985347986,16.500627306657904,12.646961778986158,117.99367257061013,4.871919915147494,36.25667146887547,10.183652912412247,224.66404717863313,18.404311843036837
2025-11-19T15:59:07.717907,/muse/eeg,819.96336996337,877.1794871794872,552.4175824175825,788.5347985347986,18.078848869011267,12.524593655748198,112.93492612006249,5.070644436751647,40.683578316895805,12.199701057146898,229.34715063937733,18.748040143362033
2025-11-19T15:59:07.717907,/muse/eeg,819.96336996337,877.1794871794872,552.4175824175825,788.5347985347986,4.1242943075190714,12.403292290311544,108.0566302955052,5.741893410087313,26.892105070693226,12.277182847891611,234.2214522474298,16.14791641551618
2025-11-19T15:59:07.717907,/muse/eeg,819.96336996337,877.1794871794872,552.4175824175825,788.5347985347986,4.167183612636296,12.362610439795041,102.46217309451686,5.232082193704706,26.609918164558646,11.55982397720733,235.60481017568924,16.43827073716266
2025-11-19T15:59:07.717907,/muse/eeg,819.96336996337,877.1794871794872,552.4175824175825,788.5347985347986,4.230891124246913,12.38627754552784,98.10502430912237,4.858416803512841,26.496788158285135,10.717924726835223,235.52438930170638,16.825539867210352
2025-11-19T15:59:07.721132,/muse/eeg,819.96336996337,877.1794871794872,552.4175824175825,788.5347985347986,4.297094501593058,12.461393970992603,96.00138883268332,4.774968820381913,26.527931313165613,10.058318562707171,235.35439391752448,17.366894957461575
2025-11-19T15:59:07.773335,/muse/eeg,823.1868131868132,874.3589743589744,630.5860805860806,794.981684981685,4.39634696267815,12.542656051032292,107.39182052478128,5.098603476556784,27.334262546287093,9.487709469177172,261.52635728740665,18.351298497155465
2025-11-19T15:59:07.788663,/muse/eeg,821.1721611721612,851.3919413919414,711.5750915750916,787.7289377289378,4.341111543526523,13.102580831872949,127.98410674805223,5.563188515977851,27.41598193922178,8.473212913688156,293.77309559520415,16.71774958249766
2025-11-19T15:59:07.793989,/muse/eeg,821.1721611721612,851.3919413919414,711.5750915750916,787.7289377289378,4.464023179577205,13.306936860519693,131.58215902141296,6.7455579904076775,27.664561408780862,8.364487964960087,253.89371784447815,15.301936616632691
2025-11-19T15:59:07.797081,/muse/eeg,821.1721611721612,851.3919413919414,711.5750915750916,787.7289377289378,5.4683995104588465,13.50895980659166,134.45229160173398,13.496410877738906,27.335377252325703,9.1377314116347,241.11589475480486,16.01624398153175
2025-11-19T15:59:07.798236,/muse/eeg,821.1721611721612,851.3919413919414,711.5750915750916,787.7289377289378,4.717811592078198,13.421137095349513,126.47852364517432,9.196003430825247,26.956123538207386,10.689080610899778,259.4697613976046,15.22903337727526
2025-11-19T15:59:07.798236,/muse/eeg,821.1721611721612,851.3919413919414,711.5750915750916,787.7289377289378,4.418728378957692,13.030670106861011,127.51957349094607,7.904890947324209,26.786125469466107,11.759317195251924,289.03791576282674,16.393519714509043
2025-11-19T15:59:07.799878,/muse/eeg,821.1721611721612,851.3919413919414,711.5750915750916,787.7289377289378,4.701053841492225,13.265260793123357,123.52664943592056,4.495977967879836,26.978757750681616,11.428642234251981,308.2293467608216,14.135029412561524
2025-11-19T15:59:07.800888,/muse/eeg,821.1721611721612,851.3919413919414,711.5750915750916,787.7289377289378,4.644981291275943,13.233331698061733,128.5264375792529,4.41376950638095,27.162088384696176,11.081639038173458,305.28845535005496,14.248720155672046
2025-11-19T15:59:07.800888,/muse/eeg,821.1721611721612,851.3919413919414,711.5750915750916,787.7289377289378,4.561718543294519,13.278896290125937,134.29155756317653,4.416907297411528,27.290850893607264,10.41571046217622,292.7045657243156,14.294199457415807
2025-11-19T15:59:07.801891,/muse/eeg,821.1721611721612,851.3919413919414,711.5750915750916,787.7289377289378,4.475573689976525,13.400629690514563,139.21647750284876,4.519644768599321,27.211478094719165,9.94962462566315,279.81577762437684,14.210695138941968
2025-11-19T15:59:07.803093,/muse/eeg,821.1721611721612,851.3919413919414,711.5750915750916,787.7289377289378,4.423519291501335,13.578052973845086,142.0645625688993,4.710918487854392,26.955244848159914,9.86694082824811,271.56853922403116,14.03985173050076
2025-11-19T15:59:07.803093,/muse/eeg,821.1721611721612,851.3919413919414,711.5750915750916,787.7289377289378,4.444152253914903,13.778603324919938,142.40037725963887,4.9538761628758845,26.765816020963758,10.063743119672905,272.4634626715316,13.933772761235971
2025-11-19T15:59:07.811478,/muse/eeg,843.3333333333334,845.3479853479854,753.4798534798535,815.934065934066,4.8096342422694605,13.822664185163307,130.37367011115788,5.649951421834052,27.396777974285218,11.395862080814734,312.09351522597893,15.960398669584816
2025-11-19T15:59:07.811478,/muse/eeg,820.7692307692308,839.7069597069598,743.4065934065934,799.0109890109891,4.520782458867925,13.714580565601883,130.92274561673776,5.634407679705037,27.582109890449548,12.895207324096825,316.0916817155465,14.09590915659456
2025-11-19T15:59:07.814959,/muse/eeg,836.0805860805862,842.9304029304029,749.4505494505495,815.1282051282052,5.21235050589017,13.841203322718997,130.1899366460059,5.9437791466696,27.46796364212148,12.060494710155389,317.768827431863,14.670220085513971
2025-11-19T15:59:07.815893,/muse/eeg,826.4102564102565,842.5274725274726,759.92673992674,810.2930402930403,4.807731725713393,13.605090844273096,140.14236164921255,4.38724991752758,26.968245928298174,11.226782261098045,290.44178200808756,14.189028052968919
2025-11-19T15:59:07.816740,/muse/eeg,813.919413919414,834.8717948717949,749.8534798534798,809.0842490842491,4.5051388821042835,13.620164362071868,152.73657580417532,4.345324538332911,28.12510778481161,11.38185245184362,278.357034425257,14.553568412101296
2025-11-19T15:59:07.817977,/muse/eeg,823.1868131868132,837.2893772893773,776.0439560439561,808.6813186813187,4.7433691600003876,14.02248246651245,158.4746055808692,4.365552926222151,26.782493062117098,10.847203868979939,278.1164532403126,14.873673293848803
2025-11-19T15:59:07.819074,/muse/eeg,834.0659340659341,833.2600732600733,782.0879120879121,811.5018315018315,4.947857161208536,14.190305468939577,165.08124974854456,4.442754046197364,27.13282948808506,10.751145905591372,281.1330878866923,14.569829461849032
2025-11-19T15:59:07.820099,/muse/eeg,834.0659340659341,833.2600732600733,782.0879120879121,811.5018315018315,5.351911617779694,14.43051258000806,142.00467674175036,4.692450223261697,27.728457631600936,11.127513274370777,277.9041270620247,15.300207022908607
2025-11-19T15:59:07.820099,/muse/eeg,834.0659340659341,833.2600732600733,782.0879120879121,811.5018315018315,4.626714992794652,13.90269946048274,135.57750695415325,4.925919806763896,27.20694199924464,11.46072376692244,284.84467926859907,14.255788455582145
2025-11-19T15:59:07.822049,/muse/eeg,834.0659340659341,833.2600732600733,782.0879120879121,811.5018315018315,4.642955820142933,14.198203276715477,135.36922083005967,5.6190763096099845,27.160020834519628,11.809854147300763,290.6241490728918,14.224451567384822
2025-11-19T15:59:07.823248,/muse/eeg,834.0659340659341,833.2600732600733,782.0879120879121,811.5018315018315,4.763102323133767,14.1490135139367,135.72962317345917,5.816936832269625,27.247426810133746,11.930238671385235,293.2047475925493,14.210806505920058
2025-11-19T15:59:07.824246,/muse/eeg,834.0659340659341,833.2600732600733,782.0879120879121,811.5018315018315,4.987029974346072,14.100447153556463,136.95692575193493,5.896681309294296,27.375093277281614,11.831458091604791,292.97154581700744,14.220155677520532
2025-11-19T15:59:07.898433,/muse/eeg,830.4395604395604,823.1868131868132,808.6813186813187,815.5311355311355,5.4739411243514615,14.53707342696513,144.25230690207752,5.44451791274161,27.58338905913306,11.24973885015587,286.66041718682885,14.553045631480925
2025-11-19T15:59:07.898433,/muse/eeg,830.4395604395604,823.1868131868132,808.6813186813187,815.5311355311355,5.541661648230946,14.515457587992207,147.8055893815348,5.5522701879275855,27.321513162734295,11.253208650202172,285.4686467622952,14.553769810874101
2025-11-19T15:59:07.898433,/muse/eeg,830.4395604395604,823.1868131868132,808.6813186813187,815.5311355311355,5.724557449152622,14.458205133353609,149.1583325245456,5.223687004624056,27.225095316810243,11.298174123598248,284.3921165983952,14.573740912589999
2025-11-19T15:59:07.898433,/muse/eeg,826.4102564102565,824.3956043956044,791.3553113553114,827.2161172161173,5.989458246864635,14.018664663728883,152.11726115735843,4.267164693775486,26.756917080301488,11.557282440443025,280.44014333279057,15.033985888682231
2025-11-19T15:59:07.898433,/muse/eeg,823.1868131868132,826.8131868131868,767.1794871794872,815.5311355311355,5.642794640547806,14.328476481219658,145.86964574012006,6.611935537597428,27.37387810811177,11.414061591465451,284.4621962864166,15.496408847954836
2025-11-19T15:59:07.898433,/muse/eeg,825.2014652014652,830.4395604395604,776.4468864468864,828.021978021978,5.577670144687931,14.275476719559524,159.618688764369,4.492861052698069,26.98089174499794,11.385115686090462,290.4631434276828,14.64665163683345
2025-11-19T15:59:07.911209,/muse/eeg,833.6630036630037,826.4102564102565,844.945054945055,826.4102564102565,4.736408600584763,15.002064379785995,154.76034396260866,4.8307538841928,28.032705299201204,11.442993130813395,298.96332650799263,14.348892622812546
2025-11-19T15:59:07.911606,/muse/eeg,823.992673992674,821.1721611721612,784.9084249084249,809.8901098901099,4.611776076037407,14.666361832608795,152.55832152334727,4.822099629554019,29.45033603016718,11.522323771050946,285.19411437219503,16.99915949887484
2025-11-19T15:59:07.911606,/muse/eeg,820.3663003663004,821.5750915750916,771.6117216117216,803.4432234432235,6.801927007115033,14.843765958077245,154.59650656150143,4.486523589197692,26.342992224804238,11.569281976711698,273.6575210314513,17.352969040704412
2025-11-19T15:59:07.912604,/muse/eeg,801.4285714285714,812.3076923076924,831.6483516483516,818.3516483516484,7.374856843560823,15.07082449624156,151.50592991683197,4.76754367829919,27.40686031492813,12.542707805184852,288.3766735450921,14.866949509236035
2025-11-19T15:59:07.913617,/muse/eeg,801.4285714285714,812.3076923076924,831.6483516483516,818.3516483516484,7.8632853069188196,15.640531497438564,152.0167942555799,5.01876530405519,26.101808745564718,12.061626112283369,283.1881283240101,14.877567469431796
2025-11-19T15:59:07.914886,/muse/eeg,801.4285714285714,812.3076923076924,831.6483516483516,818.3516483516484,8.075878854645069,16.368709959980727,153.24392940764062,5.402234449650441,24.971416695319675,11.697428487350074,278.19696575718126,15.01492479684429
2025-11-19T15:59:07.931159,/muse/eeg,798.6080586080586,823.992673992674,752.6739926739926,802.6373626373627,7.563126278063397,17.86428302412996,170.36582385513256,5.6121635405931425,25.053205095311903,12.324062674268934,298.0092741016106,14.804046534353509
2025-11-19T15:59:07.932899,/muse/eeg,815.1282051282052,815.5311355311355,733.3333333333334,813.5164835164835,7.427590166569837,17.713852176093567,174.61242955447577,6.304723365173308,28.791116395105966,11.875570877494427,315.7161917885002,14.940879164530644
2025-11-19T15:59:07.933814,/muse/eeg,809.4871794871796,819.5604395604396,797.8021978021978,809.4871794871796,6.315454369268889,18.126136856600006,161.78295019301248,6.615909616479726,29.250686509944536,12.2865630815673,289.3795165285489,14.926738614622922
2025-11-19T15:59:07.935101,/muse/eeg,809.4871794871796,819.5604395604396,797.8021978021978,809.4871794871796,5.932867269262335,16.722539797590525,174.4567244564309,7.639176023305948,27.41375611042183,12.080540807114986,269.892824827244,15.70035958753709
2025-11-19T15:59:07.936103,/muse/eeg,809.4871794871796,819.5604395604396,797.8021978021978,809.4871794871796,6.343905177120058,16.129402685274563,177.7034786891948,5.193400342796911,26.93658676058527,12.038298907110702,271.6386277238172,14.680584060940781
2025-11-19T15:59:07.937108,/muse/eeg,809.4871794871796,819.5604395604396,797.8021978021978,809.4871794871796,6.938137802781778,15.510809762168286,176.0957237292736,4.961760345812326,26.61176134376785,12.062909287335852,271.7022022054999,14.739075324195216
2025-11-19T15:59:07.938111,/muse/eeg,809.4871794871796,819.5604395604396,797.8021978021978,809.4871794871796,7.572961370192708,14.921564022932188,173.35089270722787,4.694882473510658,26.205409303853788,12.001629380898358,269.79194054834807,14.69881294762685
2025-11-19T15:59:07.940001,/muse/eeg,809.4871794871796,819.5604395604396,797.8021978021978,809.4871794871796,8.067296469486283,14.522868276227749,170.11028901115577,4.455078466317369,25.665037457641517,11.848456212867493,269.8290399161501,14.475477208503307
2025-11-19T15:59:07.941190,/muse/eeg,809.4871794871796,819.5604395604396,797.8021978021978,809.4871794871796,8.261013642265867,14.441779543805321,167.17002750772826,4.3044858917881745,25.399129769740945,11.776903429010599,272.6348927071049,14.306692097008973
2025-11-19T15:59:07.941190,/muse/eeg,809.4871794871796,819.5604395604396,797.8021978021978,809.4871794871796,8.073334237302698,14.737470949137101,165.2974434094579,4.29141355759522,25.76514909602097,11.928091610076532,275.1669052085031,14.538780349326894
2025-11-19T15:59:07.942418,/muse/eeg,809.4871794871796,819.5604395604396,797.8021978021978,809.4871794871796,7.538663114213675,15.381064867495262,165.04025416305825,4.438136134017682,26.640756420472034,12.208111136185924,274.49810813663925,15.026188243632294
2025-11-19T15:59:07.942418,/muse/eeg,809.4871794871796,819.5604395604396,797.8021978021978,809.4871794871796,6.717585437230795,16.116012440766013,167.484544584089,4.535412764938661,27.643343910773517,12.347950253666552,271.04870424667126,15.134811778065949
2025-11-19T15:59:07.951285,/muse/eeg,818.7545787545788,819.96336996337,751.4652014652015,817.1428571428571,5.329523925163475,15.48358861079237,166.2236882638585,4.3927617049065475,26.451337533877847,12.17383054420355,277.252038682415,14.442863658434568
2025-11-19T15:59:07.951285,/muse/eeg,807.4725274725275,823.5897435897436,722.4542124542124,821.978021978022,5.717234003619899,15.780627324783666,168.1053441702075,4.04622279474124,26.15156101642566,12.078723857762341,280.75830873870143,14.727925649127602
2025-11-19T15:59:07.952287,/muse/eeg,802.2344322344322,819.5604395604396,776.0439560439561,795.7875457875458,6.260106787377365,16.428886125757096,179.64587862053418,4.691689717763152,26.129540259018484,11.96729154653519,273.91436151944924,16.70708032442455
2025-11-19T15:59:07.953290,/muse/eeg,796.996336996337,817.948717948718,773.6263736263736,805.8608058608058,8.783950206164143,15.856441950008527,194.4838197360521,6.4999017010283175,24.650302689345885,12.068055692029606,290.9735049295987,14.073184028623585
2025-11-19T15:59:07.954555,/muse/eeg,796.996336996337,817.948717948718,773.6263736263736,805.8608058608058,7.0270554568867265,15.870087086593177,164.58402104240335,4.81352556690616,25.906256984776377,11.869916695206332,281.17874497912936,14.736153944314488
2025-11-19T15:59:07.957828,/muse/eeg,802.6373626373627,822.3809523809524,772.8205128205128,796.1904761904763,9.10681405013384,15.835110211092298,165.27816353704026,6.773893326641222,24.72131848324667,11.711179166924849,278.5827891816191,14.368486895304335
2025-11-19T15:59:07.958870,/muse/eeg,803.4432234432235,819.5604395604396,726.0805860805862,811.9047619047619,8.75854179989847,14.692580993997629,163.93273350310048,7.262055520217991,25.532446865948003,11.786553046637078,271.7410015001227,14.579772231071932
2025-11-19T15:59:07.959873,/muse/eeg,803.040293040293,821.5750915750916,743.0036630036631,803.8461538461539,6.684202580941666,13.922042371877895,162.46156678770936,5.068666680546218,24.976740935664026,11.947073309450811,272.83161317619306,13.854678377292899
2025-11-19T15:59:07.960891,/muse/eeg,801.8315018315019,821.5750915750916,735.7509157509157,802.2344322344322,10.232451201383132,13.573093885076387,180.30432123577856,6.944887828166863,30.396268911479673,12.133212593826372,291.21671652032364,15.303480771864715
2025-11-19T15:59:07.961921,/muse/eeg,801.8315018315019,821.5750915750916,735.7509157509157,802.2344322344322,6.443589304761883,13.317962173013981,162.21917471691015,4.580558336866665,25.28130341469646,12.251173918701177,269.7587830453083,14.195618206289428
2025-11-19T15:59:07.963011,/muse/eeg,801.8315018315019,821.5750915750916,735.7509157509157,802.2344322344322,6.605437004316384,13.533722769061036,161.68090378162978,3.9901237701613277,24.038987955819586,12.211179432490525,269.64021344907314,13.874762474767628
2025-11-19T15:59:07.963529,/muse/eeg,801.8315018315019,821.5750915750916,735.7509157509157,802.2344322344322,6.921082441762891,14.075308448418523,161.37554540681487,4.00655774794205,23.72498760566694,12.222234539719597,270.4932920633339,13.822722183588937
2025-11-19T15:59:08.005187,/muse/eeg,801.8315018315019,821.1721611721612,774.0293040293041,811.0989010989011,7.329946190834456,14.802076697637913,158.67664736958253,4.3367466759917725,23.349025255936017,12.101527730375393,277.48307063924517,14.201130659161953
2025-11-19T15:59:08.009773,/muse/eeg,797.3992673992674,827.6190476190476,740.1831501831502,801.025641025641,7.599230343017412,16.150641901211294,160.51288964245109,4.308204437107351,23.852231998388433,11.956813541421432,270.4514940969662,13.9856625299998
2025-11-19T15:59:08.016556,/muse/eeg,803.040293040293,822.3809523809524,679.3406593406594,791.7582417582418,7.9009944571530335,16.99836348380067,163.88141157315778,4.422520539693647,24.415223072644398,11.615534270059744,288.2375354970626,14.81183944346256
2025-11-19T15:59:08.017612,/muse/eeg,803.040293040293,822.3809523809524,679.3406593406594,791.7582417582418,7.168749739640337,15.893216362103527,167.4448066119466,3.7100336666342653,24.01610886678627,11.852955899183815,287.0652020731827,14.356383661433975
2025-11-19T15:59:08.018633,/muse/eeg,803.040293040293,822.3809523809524,679.3406593406594,791.7582417582418,7.006842695613059,17.82834775649919,170.32989791291354,4.2247798813361594,23.171287637621163,11.673337692683994,283.22713688420737,14.030782923742112
2025-11-19T15:59:08.018633,/muse/eeg,803.040293040293,822.3809523809524,679.3406593406594,791.7582417582418,8.04155637121793,16.966572570626358,165.71501414686236,4.1710268162517945,23.06170102697994,12.036904569756313,273.30866392279114,14.023774728799456
2025-11-19T15:59:08.020611,/muse/eeg,803.040293040293,822.3809523809524,679.3406593406594,791.7582417582418,7.516152178137911,14.679275423453465,165.38927814113163,4.156293558827507,22.78909202768181,12.088210213424414,274.39735639879166,14.159830646566546
2025-11-19T15:59:08.021042,/muse/eeg,803.040293040293,822.3809523809524,679.3406593406594,791.7582417582418,7.458275543344464,13.335765588489675,165.60953414083963,4.2823296410647345,22.74667688994122,12.28224441260923,279.7901376594011,14.15605330667571
2025-11-19T15:59:08.030068,/muse/eeg,803.040293040293,822.3809523809524,679.3406593406594,791.7582417582418,7.349223770243214,12.145786461433307,165.59204973599324,4.3265512512481585,22.753531701934833,12.542886822507109,282.5868321634997,14.022558571505819
2025-11-19T15:59:08.034755,/muse/eeg,803.040293040293,822.3809523809524,679.3406593406594,791.7582417582418,7.228103928766846,11.43588315779395,165.21459552699108,4.268432032093083,22.743259692581102,12.508310897776159,281.9796770686286,13.903650073834182
2025-11-19T15:59:08.036240,/muse/eeg,803.040293040293,822.3809523809524,679.3406593406594,791.7582417582418,7.1397461898059955,11.443538645590873,164.4624224882453,4.118534931457134,22.621088297627658,11.791843333259209,280.890774476912,13.988227040768592
2025-11-19T15:59:08.037372,/muse/eeg,803.040293040293,822.3809523809524,679.3406593406594,791.7582417582418,7.121762585334057,12.239078360573389,163.4387470498112,3.91909919608323,22.45162827761173,10.805019199732394,280.61208960790185,14.21780805580513
2025-11-19T15:59:08.069842,/muse/eeg,787.7289377289378,821.978021978022,706.3369963369963,795.3846153846154,7.406072657490968,13.784743255056181,162.7119382186785,3.732859293167276,22.941849310764944,10.651558466997388,283.40244441914837,14.378203273778862
2025-11-19T15:59:08.070873,/muse/eeg,788.9377289377289,821.1721611721612,691.4285714285714,792.5641025641025,7.582004804830028,15.40817484729724,161.58483548132642,3.6666378384512335,23.020854612845547,11.841508560656457,279.9228584194538,14.276277112642035
2025-11-19T15:59:08.073214,/muse/eeg,796.1904761904763,814.7252747252747,718.021978021978,805.054945054945,7.635033800599022,18.31896816732077,164.5417436410149,6.036045241214145,24.159122855959538,14.439575611623242,275.1144122821638,14.90642405132094
2025-11-19T15:59:08.074218,/muse/eeg,796.1904761904763,814.7252747252747,718.021978021978,805.054945054945,7.652985204890241,11.25838198554724,167.40878763435475,3.8505683700559405,22.518327532009152,10.512216301953444,275.3593949122825,14.205343082005143
2025-11-19T15:59:08.077146,/muse/eeg,796.1904761904763,814.7252747252747,718.021978021978,805.054945054945,7.517784309131161,11.456202217230826,165.55393309856615,3.988652380730666,22.619986921927158,10.411988112510695,278.2974401149994,14.083416682732915
2025-11-19T15:59:08.077146,/muse/eeg,796.1904761904763,814.7252747252747,718.021978021978,805.054945054945,7.400290792893092,11.624542631045104,164.05535088563835,4.126228883926444,22.549392996972657,10.390405465439503,280.9994690345659,14.055272137016917
2025-11-19T15:59:08.078524,/muse/eeg,796.1904761904763,814.7252747252747,718.021978021978,805.054945054945,7.339465515216873,11.708818510383587,163.19717436707592,4.223376151674516,22.475208067371923,10.450084934940786,282.0522688230537,14.074507303409625
2025-11-19T15:59:08.081567,/muse/eeg,782.4908424908425,817.1428571428571,694.6520146520147,800.6227106227107,7.775990730917732,11.65051451077913,163.3843682382151,4.3272225080718645,22.927052194833205,10.651561781311786,289.39260908907323,14.47786516715224
2025-11-19T15:59:08.085739,/muse/eeg,782.4908424908425,817.1428571428571,694.6520146520147,800.6227106227107,7.813612569645501,11.499504416873588,164.1784412485455,4.292977778364783,22.99783402244622,10.678894984999973,286.52104108024645,14.437024956026272
2025-11-19T15:59:08.086816,/muse/eeg,782.4908424908425,817.1428571428571,694.6520146520147,800.6227106227107,7.91914454082716,11.265238547414166,165.56739180663942,4.199869069771857,22.68494627116068,10.660517107274575,283.0666849262455,14.380115989302434
2025-11-19T15:59:08.086816,/muse/eeg,782.4908424908425,817.1428571428571,694.6520146520147,800.6227106227107,8.075068532871498,11.01599775704348,167.29010955545596,4.090939414914417,22.43708264807311,10.647752005611666,280.591095855228,14.37834293218418
2025-11-19T15:59:08.089224,/muse/eeg,782.4908424908425,817.1428571428571,694.6520146520147,800.6227106227107,8.24477780819888,10.830542564267063,169.0092517358222,4.017530094831317,22.46114842416703,10.625674312346106,280.55501852065925,14.472491578009206
2025-11-19T15:59:08.104799,/muse/eeg,791.3553113553114,812.7106227106227,707.1428571428571,813.919413919414,8.620517566260126,10.764540557073166,173.68154512778403,3.772402306980574,23.042478002238667,10.729733325778856,287.3320423911759,15.964140650474638
2025-11-19T15:59:08.109294,/muse/eeg,788.5347985347986,848.974358974359,697.0695970695971,776.8498168498169,8.428721516511334,11.021068598042131,178.0188545623417,4.752168172309204,22.62779177523727,12.950589302252304,288.45533500344686,15.642643164168026
2025-11-19T15:59:08.109294,/muse/eeg,788.5347985347986,848.974358974359,697.0695970695971,776.8498168498169,8.039241569236147,11.281074720683703,175.5433854588146,4.694625243073652,22.417499432056033,11.736967862807347,288.960176098911,15.03705601515749
2025-11-19T15:59:08.111526,/muse/eeg,788.5347985347986,848.974358974359,697.0695970695971,776.8498168498169,7.897959742128006,11.747037884146437,161.6161060132688,4.845333105073002,22.593902187085583,10.73956108696302,284.64978826600316,13.637332320017087
2025-11-19T15:59:08.112804,/muse/eeg,788.5347985347986,848.974358974359,697.0695970695971,776.8498168498169,7.988902873040666,11.170529263465719,161.40246684924705,6.209529232323891,22.898430531612114,10.458355128164001,282.7323251443939,13.35482733166237
2025-11-19T15:59:08.113809,/muse/eeg,788.5347985347986,848.974358974359,697.0695970695971,776.8498168498169,8.19270430345228,10.858492126998787,160.5998385527277,6.7121744627628726,22.933412709945713,11.33797859521694,299.10639883159797,14.979147795329018
2025-11-19T15:59:08.116441,/muse/eeg,788.5347985347986,848.974358974359,697.0695970695971,776.8498168498169,8.326253186747929,11.220377438221167,160.35515751318138,4.68847790406361,23.027858704272937,12.588693831807362,279.31950859982487,14.133670494680096
2025-11-19T15:59:08.117507,/muse/eeg,788.5347985347986,848.974358974359,697.0695970695971,776.8498168498169,8.612305257603895,10.903814958541858,167.57936118130505,5.047486250259505,23.747523955877426,12.639778030914425,272.96173946171007,15.143193983276722
2025-11-19T15:59:08.119560,/muse/eeg,788.5347985347986,848.974358974359,697.0695970695971,776.8498168498169,8.342315418551788,10.927715845938836,164.17587727542062,4.92948228608768,22.269401268939113,12.327391391249993,276.4688480553339,13.587288804671964
2025-11-19T15:59:08.119560,/muse/eeg,788.5347985347986,848.974358974359,697.0695970695971,776.8498168498169,8.273031838697943,10.914753628563133,162.88530546137432,5.236158512508459,22.205691926178222,11.917251970010398,279.9100449863181,13.261564683244801
2025-11-19T15:59:08.122599,/muse/eeg,788.5347985347986,848.974358974359,697.0695970695971,776.8498168498169,8.121289861087167,10.883061856802286,162.4026657271803,5.52874201633737,22.13297584462128,11.665752528090767,281.6885061723859,13.087284738660184
2025-11-19T15:59:08.122599,/muse/eeg,788.5347985347986,848.974358974359,697.0695970695971,776.8498168498169,7.932761837558539,10.843756159033196,162.87969771396496,5.768773150145177,22.138689217736385,11.53610492007893,281.7807675426212,13.068162958617862
2025-11-19T15:59:08.149741,/muse/eeg,771.2087912087912,858.2417582417582,655.9706959706959,765.9706959706959,7.718745358914056,10.728360571950608,164.65060471085548,5.398528343799321,23.047347776854348,12.620861975537494,290.25379082813606,14.332760600713444
2025-11-19T15:59:08.151535,/muse/eeg,790.1465201465202,851.3919413919414,718.8278388278388,783.2967032967033,7.512633719271013,10.792146075639184,165.35603022449789,6.4179491154900745,23.1456006044278,11.780282937572789,279.2910242254856,12.844006402280128
